Wavelength (nm), Global Tilt (W m-2 nm-1), Flux (W m-2)
280.00, 4.730900e-23, 1.068404e-23
280.50, 1.230700e-21, 2.784318e-22
281.00, 5.689500e-21, 1.289479e-21
281.50, 1.566200e-19, 3.555980e-20
282.00, 1.194600e-18, 2.717098e-19
282.50, 4.543600e-18, 1.035267e-18
283.00, 1.845200e-17, 4.211760e-18
283.50, 3.536000e-17, 8.085354e-18
284.00, 7.267000e-16, 1.664590e-16
284.50, 2.485600e-15, 5.703576e-16
285.00, 8.014200e-15, 1.842208e-15
285.50, 4.261300e-14, 9.812551e-15
286.00, 1.368400e-13, 3.156551e-14
286.50, 8.382300e-13, 1.936964e-13
287.00, 2.736700e-12, 6.334944e-13
287.50, 1.090300e-11, 2.528236e-12
288.00, 6.233700e-11, 1.448012e-11
288.50, 1.716200e-10, 3.993442e-11
289.00, 5.626500e-10, 1.311505e-10
289.50, 2.074900e-09, 4.844840e-10
290.00, 6.016800e-09, 1.407334e-09
290.50, 1.378300e-08, 3.229413e-09
291.00, 3.505200e-08, 8.226962e-09
291.50, 1.091300e-07, 2.565762e-08
292.00, 2.683000e-07, 6.318838e-08
292.50, 4.268500e-07, 1.007012e-07
293.00, 8.646600e-07, 2.043368e-07
293.50, 2.270700e-06, 5.375286e-07
294.00, 4.174400e-06, 9.898630e-07
294.50, 6.591100e-06, 1.565586e-06
295.00, 1.229000e-05, 2.924204e-06
295.50, 2.782600e-05, 6.631961e-06
296.00, 4.790400e-05, 1.143661e-05
296.50, 7.134500e-05, 1.706169e-05
297.00, 9.680000e-05, 2.318812e-05
297.50, 1.860800e-04, 4.464989e-05
298.00, 2.898800e-04, 6.967359e-05
298.50, 3.578900e-04, 8.616435e-05
299.00, 4.921100e-04, 1.186771e-04
299.50, 8.606800e-04, 2.079085e-04
300.00, 1.020500e-03, 2.469267e-04
300.50, 1.245000e-03, 3.017502e-04
301.00, 1.930000e-03, 4.685517e-04
301.50, 2.691400e-03, 6.544843e-04
302.00, 2.920900e-03, 7.114712e-04
302.50, 4.284000e-03, 1.045222e-03
303.00, 7.094500e-03, 1.733797e-03
303.50, 8.979500e-03, 2.198085e-03
304.00, 9.470100e-03, 2.321998e-03
304.50, 1.195300e-02, 2.935607e-03
305.00, 1.646300e-02, 4.049883e-03
305.50, 1.871900e-02, 4.612406e-03
306.00, 1.857700e-02, 4.584909e-03
306.50, 2.110800e-02, 5.218086e-03
307.00, 2.784900e-02, 6.895753e-03
307.50, 3.563500e-02, 8.838032e-03
308.00, 3.783700e-02, 9.399421e-03
308.50, 4.143000e-02, 1.030870e-02
309.00, 4.053400e-02, 1.010210e-02
309.50, 4.330600e-02, 1.081042e-02
310.00, 5.093900e-02, 1.273637e-02
310.50, 6.554000e-02, 1.641352e-02
311.00, 8.292200e-02, 2.080003e-02
311.50, 8.408000e-02, 2.112440e-02
312.00, 9.337600e-02, 2.349760e-02
312.50, 9.898400e-02, 2.494875e-02
313.00, 1.073300e-01, 2.709562e-02
313.50, 1.075700e-01, 2.719959e-02
314.00, 1.196900e-01, 3.031246e-02
314.50, 1.306000e-01, 3.312818e-02
315.00, 1.362500e-01, 3.461631e-02
315.50, 1.183800e-01, 3.012391e-02
316.00, 1.234800e-01, 3.147150e-02
316.50, 1.503600e-01, 3.838307e-02
317.00, 1.715800e-01, 4.386919e-02
317.50, 1.824500e-01, 4.672199e-02
318.00, 1.759400e-01, 4.512585e-02
318.50, 1.859100e-01, 4.775797e-02
319.00, 2.047000e-01, 5.266744e-02
319.50, 1.958900e-01, 5.047971e-02
320.00, 2.052700e-01, 5.297966e-02
320.50, 2.452500e-01, 6.339730e-02
321.00, 2.502400e-01, 6.478813e-02
321.50, 2.384300e-01, 6.182663e-02
322.00, 2.220300e-01, 5.766353e-02
322.50, 2.170900e-01, 5.646811e-02
323.00, 2.122600e-01, 5.529736e-02
323.50, 2.486100e-01, 6.486741e-02
324.00, 2.753700e-01, 7.196069e-02
324.50, 2.832100e-01, 7.412368e-02
325.00, 2.789400e-01, 7.311860e-02
325.50, 3.243600e-01, 8.515536e-02
326.00, 3.812000e-01, 1.002315e-01
326.50, 4.072200e-01, 1.072373e-01
327.00, 3.980600e-01, 1.049857e-01
327.50, 3.846500e-01, 1.016040e-01
328.00, 3.511600e-01, 9.289933e-02
328.50, 3.716400e-01, 9.846719e-02
329.00, 4.223500e-01, 1.120733e-01
329.50, 4.687800e-01, 1.245828e-01
330.00, 4.713900e-01, 1.254666e-01
330.50, 4.280000e-01, 1.140904e-01
331.00, 4.026200e-01, 1.074873e-01
331.50, 4.180600e-01, 1.117779e-01
332.00, 4.362300e-01, 1.168120e-01
332.50, 4.391900e-01, 1.177817e-01
333.00, 4.294400e-01, 1.153401e-01
333.50, 4.072400e-01, 1.095418e-01
334.00, 4.149700e-01, 1.117884e-01
334.50, 4.450900e-01, 1.200819e-01
335.00, 4.638800e-01, 1.253384e-01
335.50, 4.531300e-01, 1.226165e-01
336.00, 4.151900e-01, 1.125174e-01
336.50, 3.821400e-01, 1.037149e-01
337.00, 3.738000e-01, 1.016022e-01
337.50, 4.005100e-01, 1.090237e-01
338.00, 4.341100e-01, 1.183451e-01
338.50, 4.552700e-01, 1.242972e-01
339.00, 4.635500e-01, 1.267448e-01
339.50, 4.744600e-01, 1.299191e-01
340.00, 5.018000e-01, 1.376079e-01
340.50, 5.007100e-01, 1.375109e-01
341.00, 4.713900e-01, 1.296488e-01
341.50, 4.693500e-01, 1.292770e-01
342.00, 4.893400e-01, 1.349803e-01
342.50, 5.076700e-01, 1.402413e-01
343.00, 5.148900e-01, 1.424434e-01
343.50, 4.860900e-01, 1.346719e-01
344.00, 4.184300e-01, 1.160954e-01
344.50, 4.030700e-01, 1.119962e-01
345.00, 4.589800e-01, 1.277164e-01
345.50, 4.893200e-01, 1.363561e-01
346.00, 4.777800e-01, 1.333330e-01
346.50, 4.865700e-01, 1.359823e-01
347.00, 4.940400e-01, 1.382691e-01
347.50, 4.767400e-01, 1.336196e-01
348.00, 4.751100e-01, 1.333543e-01
348.50, 4.833600e-01, 1.358649e-01
349.00, 4.656400e-01, 1.310718e-01
349.50, 4.780500e-01, 1.347579e-01
350.00, 5.279800e-01, 1.490456e-01
350.50, 5.674100e-01, 1.604053e-01
351.00, 5.517200e-01, 1.561923e-01
351.50, 5.302200e-01, 1.503194e-01
352.00, 5.179100e-01, 1.470384e-01
352.50, 4.896200e-01, 1.392041e-01
353.00, 5.204000e-01, 1.481650e-01
353.50, 5.722800e-01, 1.631668e-01
354.00, 6.049800e-01, 1.727341e-01
354.50, 6.115600e-01, 1.748594e-01
355.00, 6.114000e-01, 1.750602e-01
355.50, 5.902800e-01, 1.692511e-01
356.00, 5.538700e-01, 1.590346e-01
356.50, 5.194200e-01, 1.493523e-01
357.00, 4.567300e-01, 1.315108e-01
357.50, 4.621500e-01, 1.332578e-01
358.00, 4.300600e-01, 1.241783e-01
358.50, 3.992600e-01, 1.154459e-01
359.00, 4.695300e-01, 1.359538e-01
359.50, 5.654900e-01, 1.639674e-01
360.00, 5.981700e-01, 1.736844e-01
360.50, 5.653100e-01, 1.643712e-01
361.00, 5.202400e-01, 1.514763e-01
361.50, 5.095600e-01, 1.485721e-01
362.00, 5.342000e-01, 1.559718e-01
362.50, 5.851000e-01, 1.710692e-01
363.00, 6.019100e-01, 1.762268e-01
363.50, 5.854100e-01, 1.716320e-01
364.00, 6.062800e-01, 1.779952e-01
364.50, 6.005800e-01, 1.765640e-01
365.00, 6.235900e-01, 1.835801e-01
365.50, 6.862800e-01, 2.023124e-01
366.00, 7.353200e-01, 2.170657e-01
366.50, 7.365800e-01, 2.177347e-01
367.00, 7.228500e-01, 2.139676e-01
367.50, 7.091400e-01, 2.101953e-01
368.00, 6.675900e-01, 1.981488e-01
368.50, 6.631000e-01, 1.970835e-01
369.00, 6.931500e-01, 2.062943e-01
369.50, 7.446900e-01, 2.219339e-01
370.00, 7.550700e-01, 2.253319e-01
370.50, 6.826100e-01, 2.039833e-01
371.00, 6.933800e-01, 2.074813e-01
371.50, 7.205100e-01, 2.158900e-01
372.00, 6.744400e-01, 2.023578e-01
372.50, 6.425300e-01, 1.930427e-01
373.00, 6.188600e-01, 1.861808e-01
373.50, 5.578600e-01, 1.680543e-01
374.00, 5.564000e-01, 1.678388e-01
374.50, 5.522700e-01, 1.668157e-01
375.00, 5.893000e-01, 1.782385e-01
375.50, 6.516200e-01, 1.973504e-01
376.00, 6.748000e-01, 2.046429e-01
376.50, 6.639000e-01, 2.016050e-01
377.00, 7.122500e-01, 2.165746e-01
377.50, 7.945500e-01, 2.419201e-01
378.00, 8.559500e-01, 2.609600e-01
378.50, 8.341800e-01, 2.546592e-01
379.00, 7.438900e-01, 2.273954e-01
379.50, 6.668300e-01, 2.041083e-01
380.00, 7.007700e-01, 2.147795e-01
380.50, 7.507500e-01, 2.304007e-01
381.00, 7.638300e-01, 2.347229e-01
381.50, 6.883700e-01, 2.118118e-01
382.00, 5.867800e-01, 1.807892e-01
382.50, 5.076200e-01, 1.566044e-01
383.00, 4.549900e-01, 1.405511e-01
383.50, 4.404900e-01, 1.362496e-01
384.00, 5.096800e-01, 1.578565e-01
384.50, 6.135900e-01, 1.902866e-01
385.00, 6.735500e-01, 2.091531e-01
385.50, 6.436300e-01, 2.001218e-01
386.00, 6.210000e-01, 1.933359e-01
386.50, 6.457000e-01, 2.012862e-01
387.00, 6.514700e-01, 2.033476e-01
387.50, 6.420400e-01, 2.006631e-01
388.00, 6.358200e-01, 1.989755e-01
388.50, 6.313600e-01, 1.978344e-01
389.00, 6.854300e-01, 2.150534e-01
389.50, 7.597000e-01, 2.386620e-01
390.00, 7.969900e-01, 2.506982e-01
390.50, 8.037100e-01, 2.531361e-01
391.00, 8.513800e-01, 2.684936e-01
391.50, 8.634400e-01, 2.726451e-01
392.00, 7.949300e-01, 2.513325e-01
392.50, 6.625700e-01, 2.097515e-01
393.00, 4.797500e-01, 1.520692e-01
393.50, 3.815200e-01, 1.210865e-01
394.00, 4.956700e-01, 1.575152e-01
394.50, 6.838500e-01, 2.175913e-01
395.00, 8.077200e-01, 2.573307e-01
395.50, 8.603800e-01, 2.744546e-01
396.00, 7.565500e-01, 2.416387e-01
396.50, 5.501700e-01, 1.759437e-01
397.00, 4.261900e-01, 1.364669e-01
397.50, 6.294500e-01, 2.018051e-01
398.00, 8.524900e-01, 2.736567e-01
398.50, 1.006900e+00, 3.236297e-01
399.00, 1.069300e+00, 3.441170e-01
399.50, 1.102100e+00, 3.551170e-01
400.00, 1.114100e+00, 3.594329e-01
401.00, 1.160300e+00, 3.752739e-01
402.00, 1.206100e+00, 3.910597e-01
403.00, 1.161300e+00, 3.774706e-01
404.00, 1.180100e+00, 3.845332e-01
405.00, 1.151100e+00, 3.760121e-01
406.00, 1.122700e+00, 3.676406e-01
407.00, 1.102600e+00, 3.619479e-01
408.00, 1.151400e+00, 3.788961e-01
409.00, 1.229900e+00, 4.057204e-01
410.00, 1.048500e+00, 3.467257e-01
411.00, 1.173800e+00, 3.891075e-01
412.00, 1.247800e+00, 4.146445e-01
413.00, 1.197100e+00, 3.987624e-01
414.00, 1.184200e+00, 3.954204e-01
415.00, 1.225800e+00, 4.102999e-01
416.00, 1.262400e+00, 4.235689e-01
417.00, 1.231200e+00, 4.140935e-01
418.00, 1.177700e+00, 3.970495e-01
419.00, 1.225800e+00, 4.142546e-01
420.00, 1.123200e+00, 3.804872e-01
421.00, 1.275700e+00, 4.331760e-01
422.00, 1.258300e+00, 4.282825e-01
423.00, 1.218400e+00, 4.156846e-01
424.00, 1.211700e+00, 4.143761e-01
425.00, 1.248800e+00, 4.280707e-01
426.00, 1.213500e+00, 4.169491e-01
427.00, 1.172400e+00, 4.037731e-01
428.00, 1.183900e+00, 4.086886e-01
429.00, 1.096300e+00, 3.793328e-01
430.00, 8.746200e-01, 3.033343e-01
431.00, 7.939400e-01, 2.759934e-01
432.00, 1.320700e+00, 4.601735e-01
433.00, 1.228800e+00, 4.291438e-01
434.00, 1.135200e+00, 3.973707e-01
435.00, 1.245200e+00, 4.368799e-01
436.00, 1.365900e+00, 4.803293e-01
437.00, 1.394300e+00, 4.914410e-01
438.00, 1.223800e+00, 4.323329e-01
439.00, 1.177500e+00, 4.169262e-01
440.00, 1.349900e+00, 4.790579e-01
441.00, 1.331300e+00, 4.735308e-01
442.00, 1.425000e+00, 5.080083e-01
443.00, 1.445300e+00, 5.164109e-01
444.00, 1.408400e+00, 5.043624e-01
445.00, 1.461900e+00, 5.247004e-01
446.00, 1.310800e+00, 4.715253e-01
447.00, 1.490300e+00, 5.372976e-01
448.00, 1.508100e+00, 5.449314e-01
449.00, 1.504500e+00, 5.448441e-01
450.00, 1.559500e+00, 5.660198e-01
451.00, 1.617300e+00, 5.883027e-01
452.00, 1.548200e+00, 5.644158e-01
453.00, 1.429700e+00, 5.223683e-01
454.00, 1.533500e+00, 5.615305e-01
455.00, 1.522400e+00, 5.586938e-01
456.00, 1.572400e+00, 5.783112e-01
457.00, 1.585400e+00, 5.843711e-01
458.00, 1.551400e+00, 5.730902e-01
459.00, 1.539100e+00, 5.697879e-01
460.00, 1.529100e+00, 5.673191e-01
461.00, 1.582700e+00, 5.884821e-01
462.00, 1.597500e+00, 5.952735e-01
463.00, 1.603100e+00, 5.986532e-01
464.00, 1.554400e+00, 5.817206e-01
465.00, 1.535000e+00, 5.756984e-01
466.00, 1.567300e+00, 5.890766e-01
467.00, 1.497300e+00, 5.639744e-01
468.00, 1.561900e+00, 5.895665e-01
469.00, 1.568200e+00, 5.932094e-01
470.00, 1.507700e+00, 5.715398e-01
471.00, 1.533100e+00, 5.824050e-01
472.00, 1.612600e+00, 6.139067e-01
473.00, 1.549900e+00, 5.912873e-01
474.00, 1.567100e+00, 5.991130e-01
475.00, 1.618500e+00, 6.200690e-01
476.00, 1.563100e+00, 6.001052e-01
477.00, 1.572400e+00, 6.049439e-01
478.00, 1.623000e+00, 6.257201e-01
479.00, 1.591600e+00, 6.148981e-01
480.00, 1.618100e+00, 6.264412e-01
481.00, 1.617700e+00, 6.275911e-01
482.00, 1.623600e+00, 6.311895e-01
483.00, 1.603800e+00, 6.247856e-01
484.00, 1.573400e+00, 6.142119e-01
485.00, 1.568300e+00, 6.134859e-01
486.00, 1.271600e+00, 4.984487e-01
487.00, 1.424100e+00, 5.593751e-01
488.00, 1.541300e+00, 6.066535e-01
489.00, 1.451900e+00, 5.726368e-01
490.00, 1.622400e+00, 6.411914e-01
491.00, 1.559500e+00, 6.175905e-01
492.00, 1.486900e+00, 5.900388e-01
493.00, 1.590300e+00, 6.323531e-01
494.00, 1.552500e+00, 6.185749e-01
495.00, 1.648500e+00, 6.581545e-01
496.00, 1.567600e+00, 6.271200e-01
497.00, 1.594400e+00, 6.391273e-01
498.00, 1.550900e+00, 6.229409e-01
499.00, 1.550700e+00, 6.241113e-01
500.00, 1.545100e+00, 6.231037e-01
501.00, 1.497800e+00, 6.052367e-01
502.00, 1.496600e+00, 6.059589e-01
503.00, 1.565300e+00, 6.350374e-01
504.00, 1.458700e+00, 5.929666e-01
505.00, 1.563500e+00, 6.368292e-01
506.00, 1.626400e+00, 6.637608e-01
507.00, 1.556000e+00, 6.362844e-01
508.00, 1.516500e+00, 6.213550e-01
509.00, 1.589300e+00, 6.524652e-01
510.00, 1.548100e+00, 6.367998e-01
511.00, 1.576900e+00, 6.499183e-01
512.00, 1.618600e+00, 6.684104e-01
513.00, 1.520600e+00, 6.291672e-01
514.00, 1.488500e+00, 6.170860e-01
515.00, 1.531400e+00, 6.361061e-01
516.00, 1.545500e+00, 6.432094e-01
517.00, 1.259400e+00, 5.251555e-01
518.00, 1.440300e+00, 6.017504e-01
519.00, 1.395700e+00, 5.842425e-01
520.00, 1.523600e+00, 6.390105e-01
521.00, 1.534600e+00, 6.448618e-01
522.00, 1.569000e+00, 6.605826e-01
523.00, 1.478900e+00, 6.238414e-01
524.00, 1.590500e+00, 6.722002e-01
525.00, 1.578100e+00, 6.682324e-01
526.00, 1.534100e+00, 6.508383e-01
527.00, 1.341700e+00, 5.702952e-01
528.00, 1.535700e+00, 6.539944e-01
529.00, 1.607100e+00, 6.856970e-01
530.00, 1.544600e+00, 6.602761e-01
531.00, 1.629200e+00, 6.977545e-01
532.00, 1.599800e+00, 6.864533e-01
533.00, 1.428600e+00, 6.141459e-01
534.00, 1.530200e+00, 6.590573e-01
535.00, 1.553500e+00, 6.703456e-01
536.00, 1.619900e+00, 7.003041e-01
537.00, 1.498900e+00, 6.492032e-01
538.00, 1.573800e+00, 6.829132e-01
539.00, 1.535200e+00, 6.674019e-01
540.00, 1.482500e+00, 6.456872e-01
541.00, 1.425100e+00, 6.218366e-01
542.00, 1.551100e+00, 6.780673e-01
543.00, 1.525600e+00, 6.681504e-01
544.00, 1.579200e+00, 6.928987e-01
545.00, 1.543500e+00, 6.784797e-01
546.00, 1.529100e+00, 6.733831e-01
547.00, 1.549000e+00, 6.833960e-01
548.00, 1.504900e+00, 6.651535e-01
549.00, 1.552000e+00, 6.872231e-01
550.00, 1.539900e+00, 6.831073e-01
551.00, 1.538200e+00, 6.835938e-01
552.00, 1.569700e+00, 6.988588e-01
553.00, 1.525000e+00, 6.801875e-01
554.00, 1.554900e+00, 6.947778e-01
555.00, 1.563400e+00, 6.998368e-01
556.00, 1.536600e+00, 6.890795e-01
557.00, 1.498800e+00, 6.733372e-01
558.00, 1.531000e+00, 6.890379e-01
559.00, 1.448300e+00, 6.529863e-01
560.00, 1.474000e+00, 6.657623e-01
561.00, 1.559500e+00, 7.056380e-01
562.00, 1.484700e+00, 6.729902e-01
563.00, 1.540800e+00, 6.996621e-01
564.00, 1.510600e+00, 6.871670e-01
565.00, 1.520100e+00, 6.927145e-01
566.00, 1.437400e+00, 6.561872e-01
567.00, 1.532000e+00, 7.006087e-01
568.00, 1.518000e+00, 6.954306e-01
569.00, 1.480700e+00, 6.795369e-01
570.00, 1.481600e+00, 6.811449e-01
571.00, 1.433100e+00, 6.600036e-01
572.00, 1.513400e+00, 6.982058e-01
573.00, 1.519800e+00, 7.023842e-01
574.00, 1.511900e+00, 6.999526e-01
575.00, 1.477700e+00, 6.853112e-01
576.00, 1.465400e+00, 6.807888e-01
577.00, 1.502300e+00, 6.991433e-01
578.00, 1.456000e+00, 6.787704e-01
579.00, 1.477000e+00, 6.897517e-01
580.00, 1.502000e+00, 7.026380e-01
581.00, 1.508900e+00, 7.070828e-01
582.00, 1.532000e+00, 7.191433e-01
583.00, 1.547900e+00, 7.278555e-01
584.00, 1.544800e+00, 7.276438e-01
585.00, 1.532400e+00, 7.230390e-01
586.00, 1.495300e+00, 7.067400e-01
587.00, 1.528100e+00, 7.234751e-01
588.00, 1.493400e+00, 7.082510e-01
589.00, 1.289400e+00, 6.125431e-01
590.00, 1.370900e+00, 6.523663e-01
591.00, 1.466200e+00, 6.988990e-01
592.00, 1.435400e+00, 6.853751e-01
593.00, 1.456100e+00, 6.964334e-01
594.00, 1.449100e+00, 6.942542e-01
595.00, 1.430800e+00, 6.866408e-01
596.00, 1.474500e+00, 7.088017e-01
597.00, 1.478800e+00, 7.120615e-01
598.00, 1.460700e+00, 7.045242e-01
599.00, 1.460600e+00, 7.056540e-01
600.00, 1.475300e+00, 7.139459e-01
601.00, 1.457900e+00, 7.067013e-01
602.00, 1.436000e+00, 6.972438e-01
603.00, 1.466400e+00, 7.131871e-01
604.00, 1.492100e+00, 7.268898e-01
605.00, 1.489500e+00, 7.268245e-01
606.00, 1.482200e+00, 7.244579e-01
607.00, 1.491100e+00, 7.300106e-01
608.00, 1.486200e+00, 7.288104e-01
609.00, 1.474900e+00, 7.244586e-01
610.00, 1.468600e+00, 7.225486e-01
611.00, 1.461100e+00, 7.200371e-01
612.00, 1.483100e+00, 7.320750e-01
613.00, 1.462100e+00, 7.228884e-01
614.00, 1.417600e+00, 7.020302e-01
615.00, 1.469700e+00, 7.290168e-01
616.00, 1.431000e+00, 7.109745e-01
617.00, 1.412800e+00, 7.030716e-01
618.00, 1.466400e+00, 7.309280e-01
619.00, 1.473300e+00, 7.355557e-01
620.00, 1.473900e+00, 7.370440e-01
621.00, 1.480200e+00, 7.413883e-01
622.00, 1.426900e+00, 7.158427e-01
623.00, 1.416500e+00, 7.117678e-01
624.00, 1.411800e+00, 7.105448e-01
625.00, 1.402600e+00, 7.070458e-01
626.00, 1.401200e+00, 7.074702e-01
627.00, 1.441700e+00, 7.290816e-01
628.00, 1.363100e+00, 6.904322e-01
629.00, 1.411400e+00, 7.160353e-01
630.00, 1.392400e+00, 7.075193e-01
631.00, 1.416100e+00, 7.207041e-01
632.00, 1.363800e+00, 6.951867e-01
633.00, 1.450800e+00, 7.407045e-01
634.00, 1.428400e+00, 7.304202e-01
635.00, 1.445800e+00, 7.404839e-01
636.00, 1.412800e+00, 7.247221e-01
637.00, 1.461000e+00, 7.506256e-01
638.00, 1.470700e+00, 7.567954e-01
639.00, 1.464600e+00, 7.548377e-01
640.00, 1.434000e+00, 7.402234e-01
641.00, 1.434800e+00, 7.417936e-01
642.00, 1.437600e+00, 7.444007e-01
643.00, 1.452500e+00, 7.532876e-01
644.00, 1.446200e+00, 7.511868e-01
645.00, 1.456700e+00, 7.578156e-01
646.00, 1.415000e+00, 7.372634e-01
647.00, 1.408600e+00, 7.350649e-01
648.00, 1.395200e+00, 7.291975e-01
649.00, 1.351900e+00, 7.076573e-01
650.00, 1.359400e+00, 7.126796e-01
651.00, 1.444700e+00, 7.585642e-01
652.00, 1.387100e+00, 7.294392e-01
653.00, 1.431100e+00, 7.537318e-01
654.00, 1.415300e+00, 7.465518e-01
655.00, 1.349900e+00, 7.131430e-01
656.00, 1.185100e+00, 6.270361e-01
657.00, 1.239300e+00, 6.567129e-01
658.00, 1.385500e+00, 7.353026e-01
659.00, 1.390500e+00, 7.390777e-01
660.00, 1.399200e+00, 7.448305e-01
661.00, 1.393300e+00, 7.428135e-01
662.00, 1.381900e+00, 7.378504e-01
663.00, 1.384400e+00, 7.403018e-01
664.00, 1.396700e+00, 7.480057e-01
665.00, 1.421400e+00, 7.623803e-01
666.00, 1.420300e+00, 7.629358e-01
667.00, 1.410200e+00, 7.586479e-01
668.00, 1.415000e+00, 7.623714e-01
669.00, 1.439400e+00, 7.766786e-01
670.00, 1.419600e+00, 7.671398e-01
671.00, 1.416900e+00, 7.668235e-01
672.00, 1.397200e+00, 7.572888e-01
673.00, 1.409400e+00, 7.650380e-01
674.00, 1.407400e+00, 7.650876e-01
675.00, 1.395800e+00, 7.599074e-01
676.00, 1.412000e+00, 7.698659e-01
677.00, 1.399100e+00, 7.639609e-01
678.00, 1.406600e+00, 7.691907e-01
679.00, 1.394700e+00, 7.638081e-01
680.00, 1.396900e+00, 7.661396e-01
681.00, 1.391500e+00, 7.643003e-01
682.00, 1.398100e+00, 7.690531e-01
683.00, 1.383000e+00, 7.618625e-01
684.00, 1.373900e+00, 7.579576e-01
685.00, 1.374800e+00, 7.595630e-01
686.00, 1.343800e+00, 7.435197e-01
687.00, 9.682400e-01, 5.365046e-01
688.00, 1.120600e+00, 6.218316e-01
689.00, 1.127800e+00, 6.267365e-01
690.00, 1.182100e+00, 6.578653e-01
691.00, 1.233300e+00, 6.873540e-01
692.00, 1.268900e+00, 7.082184e-01
693.00, 1.260900e+00, 7.047703e-01
694.00, 1.246400e+00, 6.976709e-01
695.00, 1.271400e+00, 7.126901e-01
696.00, 1.268400e+00, 7.120314e-01
697.00, 1.340300e+00, 7.534744e-01
698.00, 1.319200e+00, 7.426766e-01
699.00, 1.291800e+00, 7.282930e-01
700.00, 1.282300e+00, 7.239714e-01
701.00, 1.265900e+00, 7.157331e-01
702.00, 1.267400e+00, 7.176034e-01
703.00, 1.274700e+00, 7.227648e-01
704.00, 1.307800e+00, 7.425876e-01
705.00, 1.321400e+00, 7.513757e-01
706.00, 1.314400e+00, 7.484554e-01
707.00, 1.309000e+00, 7.464363e-01
708.00, 1.304800e+00, 7.450937e-01
709.00, 1.309500e+00, 7.488338e-01
710.00, 1.317500e+00, 7.544712e-01
711.00, 1.315500e+00, 7.543869e-01
712.00, 1.307100e+00, 7.506241e-01
713.00, 1.291800e+00, 7.428797e-01
714.00, 1.302900e+00, 7.503139e-01
715.00, 1.258700e+00, 7.258752e-01
716.00, 1.271600e+00, 7.343401e-01
717.00, 1.107100e+00, 6.402354e-01
718.00, 1.029600e+00, 5.962476e-01
719.00, 9.231800e-01, 5.353638e-01
720.00, 9.855000e-01, 5.722988e-01
721.00, 1.086100e+00, 6.315951e-01
722.00, 1.240700e+00, 7.224997e-01
723.00, 1.144400e+00, 6.673441e-01
724.00, 1.055500e+00, 6.163544e-01
725.00, 1.038000e+00, 6.069726e-01
726.00, 1.081300e+00, 6.331645e-01
727.00, 1.085000e+00, 6.362061e-01
728.00, 1.040000e+00, 6.106585e-01
729.00, 1.046600e+00, 6.153780e-01
730.00, 1.128500e+00, 6.644436e-01
731.00, 1.070300e+00, 6.310396e-01
732.00, 1.153400e+00, 6.809649e-01
733.00, 1.196200e+00, 7.071987e-01
734.00, 1.235700e+00, 7.315480e-01
735.00, 1.217800e+00, 7.219332e-01
736.00, 1.205900e+00, 7.158513e-01
737.00, 1.203900e+00, 7.156351e-01
738.00, 1.226900e+00, 7.302965e-01
739.00, 1.190500e+00, 7.095901e-01
740.00, 1.219500e+00, 7.278589e-01
741.00, 1.214800e+00, 7.260336e-01
742.00, 1.215300e+00, 7.273126e-01
743.00, 1.240500e+00, 7.433944e-01
744.00, 1.250300e+00, 7.502757e-01
745.00, 1.249700e+00, 7.509236e-01
746.00, 1.247000e+00, 7.503070e-01
747.00, 1.247700e+00, 7.517345e-01
748.00, 1.240100e+00, 7.481557e-01
749.00, 1.235700e+00, 7.464979e-01
750.00, 1.234100e+00, 7.465267e-01
751.00, 1.228600e+00, 7.441905e-01
752.00, 1.233000e+00, 7.478502e-01
753.00, 1.226600e+00, 7.449577e-01
754.00, 1.242000e+00, 7.553124e-01
755.00, 1.238300e+00, 7.540611e-01
756.00, 1.223200e+00, 7.458525e-01
757.00, 1.222100e+00, 7.461675e-01
758.00, 1.229500e+00, 7.516773e-01
759.00, 1.194500e+00, 7.312428e-01
760.00, 2.660400e-01, 1.630776e-01
761.00, 1.539600e-01, 9.449879e-02
762.00, 6.876600e-01, 4.226321e-01
763.00, 3.795200e-01, 2.335570e-01
764.00, 5.387800e-01, 3.320003e-01
765.00, 6.860100e-01, 4.232779e-01
766.00, 8.146100e-01, 5.032829e-01
767.00, 9.741700e-01, 6.026481e-01
768.00, 1.113800e+00, 6.899254e-01
769.00, 1.127800e+00, 6.995071e-01
770.00, 1.160800e+00, 7.209113e-01
771.00, 1.168600e+00, 7.266980e-01
772.00, 1.177800e+00, 7.333690e-01
773.00, 1.177100e+00, 7.338825e-01
774.00, 1.177100e+00, 7.348319e-01
775.00, 1.177100e+00, 7.357813e-01
776.00, 1.179800e+00, 7.384206e-01
777.00, 1.172700e+00, 7.349227e-01
778.00, 1.171300e+00, 7.349900e-01
779.00, 1.176500e+00, 7.392019e-01
780.00, 1.163600e+00, 7.320353e-01
781.00, 1.160700e+00, 7.311470e-01
782.00, 1.166200e+00, 7.355522e-01
783.00, 1.161400e+00, 7.334614e-01
784.00, 1.153600e+00, 7.294659e-01
785.00, 1.158600e+00, 7.335621e-01
786.00, 1.159200e+00, 7.348769e-01
787.00, 1.145000e+00, 7.267983e-01
788.00, 1.130500e+00, 7.185061e-01
789.00, 1.125700e+00, 7.163634e-01
790.00, 1.091000e+00, 6.951612e-01
791.00, 1.105800e+00, 7.054834e-01
792.00, 1.095300e+00, 6.996679e-01
793.00, 1.087500e+00, 6.955625e-01
794.00, 1.097200e+00, 7.026515e-01
795.00, 1.093200e+00, 7.009716e-01
796.00, 1.074200e+00, 6.896550e-01
797.00, 1.091300e+00, 7.015137e-01
798.00, 1.112100e+00, 7.157814e-01
799.00, 1.090500e+00, 7.027586e-01
800.00, 1.072500e+00, 6.920237e-01
801.00, 1.084300e+00, 7.005122e-01
802.00, 1.085600e+00, 7.022276e-01
803.00, 1.065700e+00, 6.902147e-01
804.00, 1.078200e+00, 6.991801e-01
805.00, 1.054500e+00, 6.846619e-01
806.00, 1.097400e+00, 7.134010e-01
807.00, 1.085900e+00, 7.068009e-01
808.00, 1.082100e+00, 7.052003e-01
809.00, 1.054800e+00, 6.882597e-01
810.00, 1.055900e+00, 6.898291e-01
811.00, 1.053300e+00, 6.889800e-01
812.00, 1.026800e+00, 6.724741e-01
813.00, 1.008600e+00, 6.613681e-01
814.00, 9.035600e-01, 5.932191e-01
815.00, 8.952300e-01, 5.884722e-01
816.00, 8.321600e-01, 5.476848e-01
817.00, 8.518300e-01, 5.613176e-01
818.00, 8.225900e-01, 5.427133e-01
819.00, 9.051900e-01, 5.979396e-01
820.00, 8.618800e-01, 5.700256e-01
821.00, 9.976400e-01, 6.606185e-01
822.00, 9.515700e-01, 6.308793e-01
823.00, 6.727100e-01, 4.465411e-01
824.00, 9.350600e-01, 6.214417e-01
825.00, 9.693500e-01, 6.450127e-01
826.00, 9.338100e-01, 6.221173e-01
827.00, 9.846500e-01, 6.567818e-01
828.00, 8.497900e-01, 5.675128e-01
829.00, 9.293000e-01, 6.213613e-01
830.00, 9.160100e-01, 6.132139e-01
831.00, 9.239200e-01, 6.192544e-01
832.00, 8.942600e-01, 6.000961e-01
833.00, 9.565000e-01, 6.426340e-01
834.00, 9.341200e-01, 6.283512e-01
835.00, 1.003200e+00, 6.756281e-01
836.00, 9.723400e-01, 6.556290e-01
837.00, 1.009200e+00, 6.812969e-01
838.00, 9.990100e-01, 6.752235e-01
839.00, 1.001300e+00, 6.775789e-01
840.00, 1.015700e+00, 6.881426e-01
841.00, 1.010100e+00, 6.851633e-01
842.00, 9.970300e-01, 6.771019e-01
843.00, 1.005300e+00, 6.835290e-01
844.00, 9.863100e-01, 6.714128e-01
845.00, 1.016500e+00, 6.927839e-01
846.00, 1.018700e+00, 6.951049e-01
847.00, 9.917000e-01, 6.774815e-01
848.00, 9.921700e-01, 6.786028e-01
849.00, 9.859600e-01, 6.751506e-01
850.00, 8.937200e-01, 6.127088e-01
851.00, 9.749300e-01, 6.691704e-01
852.00, 9.692700e-01, 6.660672e-01
853.00, 9.648600e-01, 6.638150e-01
854.00, 8.511200e-01, 5.862493e-01
855.00, 9.130000e-01, 6.296085e-01
856.00, 9.731700e-01, 6.718869e-01
857.00, 9.916600e-01, 6.854524e-01
858.00, 9.919600e-01, 6.864599e-01
859.00, 9.917100e-01, 6.870867e-01
860.00, 9.881600e-01, 6.854242e-01
861.00, 9.867900e-01, 6.852698e-01
862.00, 9.944900e-01, 6.914191e-01
863.00, 1.000500e+00, 6.964045e-01
864.00, 9.791600e-01, 6.823404e-01
865.00, 9.632400e-01, 6.720233e-01
866.00, 8.490000e-01, 5.930063e-01
867.00, 9.154600e-01, 6.401654e-01
868.00, 9.592000e-01, 6.715256e-01
869.00, 9.495600e-01, 6.655426e-01
870.00, 9.675500e-01, 6.789321e-01
871.00, 9.538700e-01, 6.701022e-01
872.00, 9.668600e-01, 6.800076e-01
873.00, 9.572100e-01, 6.739927e-01
874.00, 9.404200e-01, 6.629290e-01
875.00, 9.268700e-01, 6.541247e-01
876.00, 9.527700e-01, 6.731717e-01
877.00, 9.561500e-01, 6.763310e-01
878.00, 9.523700e-01, 6.744254e-01
879.00, 9.365600e-01, 6.639849e-01
880.00, 9.395700e-01, 6.668767e-01
881.00, 9.086100e-01, 6.456351e-01
882.00, 9.324500e-01, 6.633273e-01
883.00, 9.292700e-01, 6.618146e-01
884.00, 9.330500e-01, 6.652592e-01
885.00, 9.442300e-01, 6.739920e-01
886.00, 9.075200e-01, 6.485204e-01
887.00, 9.106200e-01, 6.514701e-01
888.00, 9.222800e-01, 6.605557e-01
889.00, 9.345500e-01, 6.700975e-01
890.00, 9.239300e-01, 6.632279e-01
891.00, 9.258400e-01, 6.653457e-01
892.00, 9.088100e-01, 6.538403e-01
893.00, 8.732700e-01, 6.289755e-01
894.00, 8.513000e-01, 6.138381e-01
895.00, 8.135700e-01, 5.872887e-01
896.00, 7.625300e-01, 5.510597e-01
897.00, 6.656600e-01, 4.815913e-01
898.00, 7.178000e-01, 5.198924e-01
899.00, 5.487100e-01, 3.978655e-01
900.00, 7.426000e-01, 5.390526e-01
901.00, 5.993300e-01, 4.355365e-01
902.00, 6.679100e-01, 4.859126e-01
903.00, 6.888900e-01, 5.017315e-01
904.00, 8.445700e-01, 6.157973e-01
905.00, 8.170900e-01, 5.964200e-01
906.00, 7.755800e-01, 5.667460e-01
907.00, 6.385400e-01, 4.671207e-01
908.00, 6.521700e-01, 4.776176e-01
909.00, 7.043100e-01, 5.163705e-01
910.00, 6.246700e-01, 4.584856e-01
911.00, 6.680800e-01, 4.908859e-01
912.00, 6.889300e-01, 5.067615e-01
913.00, 6.283400e-01, 4.626997e-01
914.00, 6.264900e-01, 4.618427e-01
915.00, 6.783600e-01, 5.006279e-01
916.00, 5.764600e-01, 4.258909e-01
917.00, 7.301700e-01, 5.400414e-01
918.00, 5.927100e-01, 4.388526e-01
919.00, 7.387700e-01, 5.475937e-01
920.00, 7.441400e-01, 5.521743e-01
921.00, 7.804900e-01, 5.797766e-01
922.00, 7.002600e-01, 5.207436e-01
923.00, 7.450400e-01, 5.546449e-01
924.00, 7.215000e-01, 5.377024e-01
925.00, 7.111000e-01, 5.305253e-01
926.00, 7.033100e-01, 5.252807e-01
927.00, 7.874200e-01, 5.887350e-01
928.00, 5.896800e-01, 4.413652e-01
929.00, 5.512700e-01, 4.130606e-01
930.00, 4.321000e-01, 3.241163e-01
931.00, 4.092100e-01, 3.072767e-01
932.00, 3.008600e-01, 2.261591e-01
933.00, 2.484100e-01, 1.869323e-01
934.00, 1.438000e-01, 1.083277e-01
935.00, 2.508400e-01, 1.891656e-01
936.00, 1.614200e-01, 1.218616e-01
937.00, 1.633800e-01, 1.234731e-01
938.00, 2.005800e-01, 1.517484e-01
939.00, 3.988700e-01, 3.020860e-01
940.00, 4.718100e-01, 3.577080e-01
941.00, 3.719500e-01, 2.822981e-01
942.00, 4.053200e-01, 3.079517e-01
943.00, 2.783400e-01, 2.117001e-01
944.00, 2.857900e-01, 2.175969e-01
945.00, 3.682100e-01, 2.806474e-01
946.00, 1.946100e-01, 1.484875e-01
947.00, 3.711200e-01, 2.834641e-01
948.00, 2.742300e-01, 2.096800e-01
949.00, 4.939600e-01, 3.780870e-01
950.00, 1.472600e-01, 1.128346e-01
951.00, 4.837800e-01, 3.710754e-01
952.00, 2.689100e-01, 2.064798e-01
953.00, 3.436200e-01, 2.641223e-01
954.00, 4.241100e-01, 3.263327e-01
955.00, 3.411700e-01, 2.627894e-01
956.00, 3.282100e-01, 2.530716e-01
957.00, 2.706700e-01, 2.089228e-01
958.00, 4.610100e-01, 3.562128e-01
959.00, 3.738500e-01, 2.891676e-01
960.00, 4.206600e-01, 3.257138e-01
961.00, 4.612000e-01, 3.574756e-01
962.00, 4.417400e-01, 3.427485e-01
963.00, 5.050300e-01, 3.922628e-01
964.00, 4.586000e-01, 3.565700e-01
965.00, 5.037400e-01, 3.920735e-01
966.00, 5.027500e-01, 3.917084e-01
967.00, 5.024000e-01, 3.918409e-01
968.00, 6.521000e-01, 5.091236e-01
969.00, 6.862200e-01, 5.363161e-01
970.00, 6.346100e-01, 4.964921e-01
971.00, 7.139700e-01, 5.591559e-01
972.00, 6.876500e-01, 5.390976e-01
973.00, 6.064800e-01, 4.759519e-01
974.00, 5.752900e-01, 4.519386e-01
975.00, 5.898700e-01, 4.638682e-01
976.00, 5.719100e-01, 4.502059e-01
977.00, 6.386400e-01, 5.032507e-01
978.00, 6.150900e-01, 4.851893e-01
979.00, 6.381500e-01, 5.038940e-01
980.00, 6.046800e-01, 4.779532e-01
981.00, 7.133800e-01, 5.644476e-01
982.00, 6.921800e-01, 5.482318e-01
983.00, 6.686500e-01, 5.301345e-01
984.00, 7.373200e-01, 5.851737e-01
985.00, 6.881700e-01, 5.467209e-01
986.00, 7.508300e-01, 5.971071e-01
987.00, 7.392800e-01, 5.885181e-01
988.00, 7.346200e-01, 5.854009e-01
989.00, 7.490600e-01, 5.975120e-01
990.00, 7.322700e-01, 5.847095e-01
991.00, 7.535800e-01, 6.023331e-01
992.00, 7.510200e-01, 6.008926e-01
993.00, 7.372800e-01, 5.904939e-01
994.00, 7.541000e-01, 6.045734e-01
995.00, 7.517600e-01, 6.033037e-01
996.00, 7.488400e-01, 6.015643e-01
997.00, 7.397100e-01, 5.948266e-01
998.00, 7.388700e-01, 5.947470e-01
999.00, 7.385700e-01, 5.951012e-01
1000.00, 7.353200e-01, 5.930756e-01
1001.00, 7.444200e-01, 6.010157e-01
1002.00, 7.280500e-01, 5.883864e-01
1003.00, 7.344200e-01, 5.941268e-01
1004.00, 7.233600e-01, 5.857630e-01
1005.00, 6.817400e-01, 5.526097e-01
1006.00, 7.125200e-01, 5.781343e-01
1007.00, 7.275300e-01, 5.909001e-01
1008.00, 7.268500e-01, 5.909341e-01
1009.00, 7.197200e-01, 5.857178e-01
1010.00, 7.191400e-01, 5.858258e-01
1011.00, 7.227800e-01, 5.893740e-01
1012.00, 7.187700e-01, 5.866839e-01
1013.00, 7.176100e-01, 5.863158e-01
1014.00, 7.206800e-01, 5.894054e-01
1015.00, 7.081700e-01, 5.797453e-01
1016.00, 7.112900e-01, 5.828732e-01
1017.00, 7.033700e-01, 5.769504e-01
1018.00, 7.142200e-01, 5.864264e-01
1019.00, 6.887800e-01, 5.660938e-01
1020.00, 6.989600e-01, 5.750243e-01
1021.00, 7.017500e-01, 5.778856e-01
1022.00, 6.897000e-01, 5.685188e-01
1023.00, 6.950800e-01, 5.735141e-01
1024.00, 6.905800e-01, 5.703582e-01
1025.00, 6.975300e-01, 5.766608e-01
1026.00, 6.963600e-01, 5.762552e-01
1027.00, 6.930500e-01, 5.740751e-01
1028.00, 6.938500e-01, 5.752974e-01
1029.00, 6.862800e-01, 5.695743e-01
1030.00, 6.905500e-01, 5.736752e-01
1031.00, 6.873600e-01, 5.715795e-01
1032.00, 6.878700e-01, 5.725584e-01
1033.00, 6.761300e-01, 5.633317e-01
1034.00, 6.801500e-01, 5.672297e-01
1035.00, 6.823400e-01, 5.696064e-01
1036.00, 6.820200e-01, 5.698894e-01
1037.00, 6.749700e-01, 5.645429e-01
1038.00, 6.717200e-01, 5.623664e-01
1039.00, 6.763600e-01, 5.667965e-01
1040.00, 6.717000e-01, 5.634331e-01
1041.00, 6.717600e-01, 5.640253e-01
1042.00, 6.720000e-01, 5.647688e-01
1043.00, 6.652500e-01, 5.596325e-01
1044.00, 6.683300e-01, 5.627625e-01
1045.00, 6.645200e-01, 5.600903e-01
1046.00, 6.471400e-01, 5.459635e-01
1047.00, 6.569400e-01, 5.547612e-01
1048.00, 6.627400e-01, 5.601936e-01
1049.00, 6.589600e-01, 5.575300e-01
1050.00, 6.546300e-01, 5.543945e-01
1051.00, 6.552100e-01, 5.554141e-01
1052.00, 6.511800e-01, 5.525232e-01
1053.00, 6.491900e-01, 5.513583e-01
1054.00, 6.464600e-01, 5.495611e-01
1055.00, 6.484700e-01, 5.517928e-01
1056.00, 6.464100e-01, 5.505613e-01
1057.00, 6.448200e-01, 5.497272e-01
1058.00, 6.381800e-01, 5.445811e-01
1059.00, 6.187500e-01, 5.284999e-01
1060.00, 6.358500e-01, 5.436185e-01
1061.00, 6.212100e-01, 5.316031e-01
1062.00, 6.326600e-01, 5.419118e-01
1063.00, 6.223900e-01, 5.336169e-01
1064.00, 6.319600e-01, 5.423316e-01
1065.00, 6.291300e-01, 5.404104e-01
1066.00, 6.171300e-01, 5.306004e-01
1067.00, 6.203200e-01, 5.338434e-01
1068.00, 6.194400e-01, 5.335857e-01
1069.00, 5.862600e-01, 5.054773e-01
1070.00, 6.046900e-01, 5.218555e-01
1071.00, 6.166100e-01, 5.326399e-01
1072.00, 6.153600e-01, 5.320565e-01
1073.00, 6.036300e-01, 5.224013e-01
1074.00, 6.215800e-01, 5.384371e-01
1075.00, 5.925200e-01, 5.137421e-01
1076.00, 6.147100e-01, 5.334777e-01
1077.00, 6.043400e-01, 5.249655e-01
1078.00, 6.032100e-01, 5.244704e-01
1079.00, 6.047400e-01, 5.262885e-01
1080.00, 5.972200e-01, 5.202257e-01
1081.00, 5.808300e-01, 5.064172e-01
1082.00, 5.894000e-01, 5.143646e-01
1083.00, 5.981400e-01, 5.224744e-01
1084.00, 5.785200e-01, 5.058030e-01
1085.00, 5.933000e-01, 5.192037e-01
1086.00, 5.541000e-01, 4.853462e-01
1087.00, 5.669700e-01, 4.970766e-01
1088.00, 5.931700e-01, 5.205252e-01
1089.00, 5.791900e-01, 5.087245e-01
1090.00, 5.557300e-01, 4.885669e-01
1091.00, 5.883500e-01, 5.177191e-01
1092.00, 5.812400e-01, 5.119315e-01
1093.00, 5.105800e-01, 4.501090e-01
1094.00, 5.396500e-01, 4.761713e-01
1095.00, 5.206700e-01, 4.598438e-01
1096.00, 5.032300e-01, 4.448471e-01
1097.00, 5.785200e-01, 5.118689e-01
1098.00, 5.029100e-01, 4.453755e-01
1099.00, 5.077200e-01, 4.500447e-01
1100.00, 4.857700e-01, 4.309800e-01
1101.00, 4.969600e-01, 4.413087e-01
1102.00, 4.688300e-01, 4.167069e-01
1103.00, 4.663700e-01, 4.148965e-01
1104.00, 4.676500e-01, 4.164125e-01
1105.00, 5.064400e-01, 4.513609e-01
1106.00, 3.979200e-01, 3.549642e-01
1107.00, 4.830400e-01, 4.312851e-01
1108.00, 4.156500e-01, 3.714508e-01
1109.00, 4.127800e-01, 3.692189e-01
1110.00, 4.789900e-01, 4.288280e-01
1111.00, 3.315400e-01, 2.970870e-01
1112.00, 4.135700e-01, 3.709262e-01
1113.00, 2.685000e-01, 2.410311e-01
1114.00, 2.998500e-01, 2.694157e-01
1115.00, 2.498700e-01, 2.247101e-01
1116.00, 2.013600e-01, 1.812471e-01
1117.00, 7.961800e-02, 7.172956e-02
1118.00, 2.175300e-01, 1.961529e-01
1119.00, 1.131700e-01, 1.021398e-01
1120.00, 1.418900e-01, 1.281751e-01
1121.00, 1.858600e-01, 1.680449e-01
1122.00, 8.168600e-02, 7.392208e-02
1123.00, 1.281700e-01, 1.160913e-01
1124.00, 1.087000e-01, 9.854386e-02
1125.00, 1.442800e-01, 1.309159e-01
1126.00, 5.158900e-02, 4.685212e-02
1127.00, 1.572500e-01, 1.429382e-01
1128.00, 9.922400e-02, 9.027334e-02
1129.00, 1.059100e-01, 9.644165e-02
1130.00, 7.057400e-02, 6.432161e-02
1131.00, 2.956000e-01, 2.696502e-01
1132.00, 2.341100e-01, 2.137470e-01
1133.00, 1.533100e-01, 1.400987e-01
1134.00, 4.174000e-02, 3.817677e-02
1135.00, 1.546200e-02, 1.415452e-02
1136.00, 1.287600e-01, 1.179758e-01
1137.00, 2.878500e-01, 2.639735e-01
1138.00, 2.032900e-01, 1.865916e-01
1139.00, 2.985000e-01, 2.742217e-01
1140.00, 2.559900e-01, 2.353757e-01
1141.00, 1.933700e-01, 1.779543e-01
1142.00, 2.247900e-01, 2.070507e-01
1143.00, 3.118300e-01, 2.874735e-01
1144.00, 1.132600e-01, 1.045048e-01
1145.00, 1.460400e-01, 1.348687e-01
1146.00, 1.576400e-01, 1.457085e-01
1147.00, 5.917600e-02, 5.474478e-02
1148.00, 2.711300e-01, 2.510459e-01
1149.00, 2.185400e-01, 2.025278e-01
1150.00, 1.216400e-01, 1.128257e-01
1151.00, 2.034000e-01, 1.888252e-01
1152.00, 2.476200e-01, 2.300763e-01
1153.00, 2.381200e-01, 2.214414e-01
1154.00, 1.424800e-01, 1.326152e-01
1155.00, 3.131600e-01, 2.917306e-01
1156.00, 2.809000e-01, 2.619047e-01
1157.00, 3.145800e-01, 2.935609e-01
1158.00, 3.117100e-01, 2.911340e-01
1159.00, 3.369300e-01, 3.149610e-01
1160.00, 2.864800e-01, 2.680316e-01
1161.00, 3.475300e-01, 3.254305e-01
1162.00, 3.500200e-01, 3.280444e-01
1163.00, 4.685700e-01, 4.395294e-01
1164.00, 4.018800e-01, 3.772968e-01
1165.00, 3.886000e-01, 3.651425e-01
1166.00, 3.749400e-01, 3.526095e-01
1167.00, 4.099600e-01, 3.858745e-01
1168.00, 4.195400e-01, 3.952300e-01
1169.00, 4.231000e-01, 3.989250e-01
1170.00, 4.587300e-01, 4.328892e-01
1171.00, 4.483100e-01, 4.234177e-01
1172.00, 4.548300e-01, 4.299425e-01
1173.00, 4.564200e-01, 4.318137e-01
1174.00, 3.369200e-01, 3.190278e-01
1175.00, 4.524000e-01, 4.287402e-01
1176.00, 4.767900e-01, 4.522392e-01
1177.00, 4.723500e-01, 4.484088e-01
1178.00, 3.600000e-01, 3.420436e-01
1179.00, 4.837100e-01, 4.599732e-01
1180.00, 4.406900e-01, 4.194198e-01
1181.00, 4.551400e-01, 4.335394e-01
1182.00, 3.231800e-01, 3.081028e-01
1183.00, 4.387000e-01, 4.185873e-01
1184.00, 4.198500e-01, 4.009402e-01
1185.00, 4.074100e-01, 3.893891e-01
1186.00, 4.771500e-01, 4.564291e-01
1187.00, 4.557500e-01, 4.363260e-01
1188.00, 3.350400e-01, 3.210309e-01
1189.00, 4.156900e-01, 3.986439e-01
1190.00, 4.623900e-01, 4.438018e-01
1191.00, 4.466000e-01, 4.290068e-01
1192.00, 4.733600e-01, 4.550944e-01
1193.00, 4.543400e-01, 4.371748e-01
1194.00, 4.689000e-01, 4.515629e-01
1195.00, 4.469600e-01, 4.307946e-01
1196.00, 4.313100e-01, 4.160585e-01
1197.00, 4.771500e-01, 4.606624e-01
1198.00, 4.339200e-01, 4.192762e-01
1199.00, 3.648900e-01, 3.528701e-01
1200.00, 4.482500e-01, 4.338456e-01
1201.00, 4.370800e-01, 4.233871e-01
1202.00, 4.371700e-01, 4.238269e-01
1203.00, 4.340900e-01, 4.211910e-01
1204.00, 3.624700e-01, 3.519916e-01
1205.00, 4.369200e-01, 4.246417e-01
1206.00, 4.808600e-01, 4.677348e-01
1207.00, 4.298600e-01, 4.184735e-01
1208.00, 4.334600e-01, 4.223278e-01
1209.00, 4.142800e-01, 4.039745e-01
1210.00, 4.533600e-01, 4.424480e-01
1211.00, 4.223200e-01, 4.124958e-01
1212.00, 4.248900e-01, 4.153487e-01
1213.00, 4.695600e-01, 4.593943e-01
1214.00, 4.340700e-01, 4.250227e-01
1215.00, 4.278000e-01, 4.192285e-01
1216.00, 4.664000e-01, 4.574312e-01
1217.00, 4.552800e-01, 4.468923e-01
1218.00, 4.593400e-01, 4.512480e-01
1219.00, 4.466300e-01, 4.391221e-01
1220.00, 4.580500e-01, 4.507196e-01
1221.00, 4.653100e-01, 4.582387e-01
1222.00, 4.513900e-01, 4.448943e-01
1223.00, 4.440600e-01, 4.380279e-01
1224.00, 4.480800e-01, 4.423547e-01
1225.00, 4.623600e-01, 4.568252e-01
1226.00, 4.681900e-01, 4.629630e-01
1227.00, 4.330400e-01, 4.285547e-01
1228.00, 4.665800e-01, 4.621236e-01
1229.00, 4.672100e-01, 4.631245e-01
1230.00, 4.600300e-01, 4.563783e-01
1231.00, 4.720300e-01, 4.686637e-01
1232.00, 4.663300e-01, 4.633805e-01
1233.00, 4.539700e-01, 4.514648e-01
1234.00, 4.701600e-01, 4.679447e-01
1235.00, 4.650400e-01, 4.632239e-01
1236.00, 4.690800e-01, 4.676265e-01
1237.00, 4.633900e-01, 4.623279e-01
1238.00, 4.679700e-01, 4.672748e-01
1239.00, 4.627200e-01, 4.624058e-01
1240.00, 4.607700e-01, 4.608288e-01
1241.00, 4.619700e-01, 4.624015e-01
1242.00, 4.624700e-01, 4.632750e-01
1243.00, 4.575400e-01, 4.587054e-01
1244.00, 4.552800e-01, 4.568069e-01
1245.00, 4.565500e-01, 4.584494e-01
1246.00, 4.594500e-01, 4.617320e-01
1247.00, 4.574600e-01, 4.601011e-01
1248.00, 4.586000e-01, 4.616176e-01
1249.00, 4.596600e-01, 4.630553e-01
1250.00, 4.570500e-01, 4.607946e-01
1251.00, 4.525800e-01, 4.566531e-01
1252.00, 4.509700e-01, 4.553923e-01
1253.00, 4.477300e-01, 4.524816e-01
1254.00, 4.436300e-01, 4.486959e-01
1255.00, 4.507000e-01, 4.562102e-01
1256.00, 4.402300e-01, 4.459673e-01
1257.00, 4.353200e-01, 4.413444e-01
1258.00, 4.449600e-01, 4.514767e-01
1259.00, 4.272500e-01, 4.338519e-01
1260.00, 4.311000e-01, 4.381091e-01
1261.00, 4.114600e-01, 4.184816e-01
1262.00, 3.956700e-01, 4.027413e-01
1263.00, 4.001900e-01, 4.076649e-01
1264.00, 3.714800e-01, 3.787182e-01
1265.00, 3.957000e-01, 4.037293e-01
1266.00, 3.852700e-01, 3.933984e-01
1267.00, 3.882200e-01, 3.967238e-01
1268.00, 3.705100e-01, 3.789247e-01
1269.00, 2.465200e-01, 2.523176e-01
1270.00, 3.874400e-01, 3.968642e-01
1271.00, 4.082500e-01, 4.185096e-01
1272.00, 4.087900e-01, 4.193929e-01
1273.00, 4.062500e-01, 4.171147e-01
1274.00, 4.061400e-01, 4.173293e-01
1275.00, 4.123300e-01, 4.240224e-01
1276.00, 4.169300e-01, 4.290891e-01
1277.00, 4.200100e-01, 4.325977e-01
1278.00, 4.276300e-01, 4.407910e-01
1279.00, 4.245600e-01, 4.379689e-01
1280.00, 4.220400e-01, 4.357098e-01
1281.00, 4.133500e-01, 4.270717e-01
1282.00, 3.730500e-01, 3.857348e-01
1283.00, 4.073300e-01, 4.215089e-01
1284.00, 4.207800e-01, 4.357665e-01
1285.00, 4.239900e-01, 4.394328e-01
1286.00, 4.271400e-01, 4.430420e-01
1287.00, 4.221300e-01, 4.381860e-01
1288.00, 4.198900e-01, 4.361994e-01
1289.00, 4.093600e-01, 4.255906e-01
1290.00, 4.128500e-01, 4.295520e-01
1291.00, 4.178600e-01, 4.351017e-01
1292.00, 3.961800e-01, 4.128466e-01
1293.00, 4.125700e-01, 4.302589e-01
1294.00, 4.042100e-01, 4.218665e-01
1295.00, 4.051400e-01, 4.231639e-01
1296.00, 3.895700e-01, 4.072154e-01
1297.00, 3.713000e-01, 3.884174e-01
1298.00, 3.918300e-01, 4.102098e-01
1299.00, 4.085200e-01, 4.280122e-01
1300.00, 3.531200e-01, 3.702537e-01
1301.00, 3.622800e-01, 3.801503e-01
1302.00, 3.918100e-01, 4.114530e-01
1303.00, 3.462100e-01, 3.638461e-01
1304.00, 3.006200e-01, 3.161762e-01
1305.00, 3.838200e-01, 4.039911e-01
1306.00, 3.845300e-01, 4.050486e-01
1307.00, 3.059400e-01, 3.225118e-01
1308.00, 3.469600e-01, 3.660335e-01
1309.00, 3.841300e-01, 4.055567e-01
1310.00, 3.011400e-01, 3.181804e-01
1311.00, 3.336600e-01, 3.528097e-01
1312.00, 3.333700e-01, 3.527720e-01
1313.00, 3.135200e-01, 3.320196e-01
1314.00, 2.883300e-01, 3.055758e-01
1315.00, 2.858100e-01, 3.031356e-01
1316.00, 3.241900e-01, 3.441036e-01
1317.00, 3.121700e-01, 3.315970e-01
1318.00, 3.332800e-01, 3.542896e-01
1319.00, 2.685500e-01, 2.856957e-01
1320.00, 2.587200e-01, 2.754467e-01
1321.00, 2.986600e-01, 3.182098e-01
1322.00, 3.021700e-01, 3.221933e-01
1323.00, 2.327900e-01, 2.484036e-01
1324.00, 2.624900e-01, 2.803073e-01
1325.00, 3.222400e-01, 3.443729e-01
1326.00, 2.805100e-01, 3.000030e-01
1327.00, 2.662500e-01, 2.849668e-01
1328.00, 2.345000e-01, 2.511740e-01
1329.00, 1.775900e-01, 1.903607e-01
1330.00, 2.292300e-01, 2.458990e-01
1331.00, 1.448000e-01, 1.554463e-01
1332.00, 1.457900e-01, 1.566267e-01
1333.00, 2.030400e-01, 2.182958e-01
1334.00, 1.692500e-01, 1.821035e-01
1335.00, 2.311700e-01, 2.489123e-01
1336.00, 1.834800e-01, 1.977101e-01
1337.00, 1.645400e-01, 1.774339e-01
1338.00, 1.780400e-01, 1.921354e-01
1339.00, 1.768100e-01, 1.909506e-01
1340.00, 1.683100e-01, 1.819066e-01
1341.00, 1.703900e-01, 1.842920e-01
1342.00, 1.779800e-01, 1.926449e-01
1343.00, 1.271100e-01, 1.376859e-01
1344.00, 7.564500e-02, 8.199988e-02
1345.00, 1.090400e-01, 1.182883e-01
1346.00, 5.818600e-02, 6.316802e-02
1347.00, 6.011900e-02, 6.531502e-02
1348.00, 4.745100e-03, 5.159041e-03
1349.00, 1.615900e-02, 1.758167e-02
1350.00, 1.602500e-02, 1.744880e-02
1351.00, 4.629800e-03, 5.044885e-03
1352.00, 1.516400e-03, 1.653576e-03
1353.00, 9.609600e-05, 1.048665e-04
1354.00, 2.900900e-04, 3.168000e-04
1355.00, 3.603400e-06, 3.938088e-06
1356.00, 4.807000e-05, 5.257358e-05
1357.00, 7.178600e-05, 7.856938e-05
1358.00, 4.194800e-06, 4.594568e-06
1359.00, 7.343900e-07, 8.049704e-07
1360.00, 2.140400e-06, 2.347835e-06
1361.00, 4.813300e-09, 5.283659e-09
1362.00, 1.807600e-11, 1.985698e-11
1363.00, 3.156300e-06, 3.469827e-06
1364.00, 1.358900e-06, 1.494981e-06
1365.00, 9.076400e-12, 9.992634e-12
1366.00, 1.279100e-05, 1.409253e-05
1367.00, 4.976400e-06, 5.486779e-06
1368.00, 1.481000e-13, 1.634086e-13
1369.00, 5.166700e-07, 5.704931e-07
1370.00, 2.920000e-07, 3.226540e-07
1371.00, 1.973100e-08, 2.181827e-08
1372.00, 2.749800e-06, 3.042909e-06
1373.00, 4.440100e-05, 4.916964e-05
1374.00, 1.791700e-04, 1.985572e-04
1375.00, 3.233200e-04, 3.585659e-04
1376.00, 2.574800e-04, 2.857562e-04
1377.00, 1.227000e-04, 1.362737e-04
1378.00, 1.108900e-03, 1.232467e-03
1379.00, 5.216400e-05, 5.801881e-05
1380.00, 8.158700e-05, 9.081002e-05
1381.00, 2.371600e-06, 2.641611e-06
1382.00, 2.567200e-06, 2.861551e-06
1383.00, 4.401700e-08, 4.909942e-08
1384.00, 6.168900e-07, 6.886167e-07
1385.00, 2.089900e-06, 2.334581e-06
1386.00, 2.521500e-06, 2.818746e-06
1387.00, 1.989600e-04, 2.225748e-04
1388.00, 4.026200e-06, 4.507321e-06
1389.00, 5.809800e-04, 6.508743e-04
1390.00, 4.932800e-04, 5.530215e-04
1391.00, 3.438400e-04, 3.857600e-04
1392.00, 2.378200e-05, 2.670062e-05
1393.00, 1.158600e-04, 1.301722e-04
1394.00, 7.552600e-05, 8.491667e-05
1395.00, 6.713600e-07, 7.553763e-07
1396.00, 6.321500e-09, 7.117693e-09
1397.00, 4.905700e-05, 5.527530e-05
1398.00, 1.270400e-03, 1.432456e-03
1399.00, 8.122600e-04, 9.165296e-04
1400.00, 3.246600e-09, 3.665984e-09
1401.00, 1.052800e-08, 1.189646e-08
1402.00, 1.835300e-03, 2.075338e-03
1403.00, 2.380000e-03, 2.693198e-03
1404.00, 7.389200e-04, 8.367548e-04
1405.00, 3.644400e-07, 4.129867e-07
1406.00, 2.044800e-03, 2.318835e-03
1407.00, 1.745700e-04, 1.981059e-04
1408.00, 1.649300e-03, 1.872992e-03
1409.00, 6.191900e-04, 7.036693e-04
1410.00, 4.665300e-04, 5.305574e-04
1411.00, 2.114200e-03, 2.406062e-03
1412.00, 2.639600e-03, 3.006121e-03
1413.00, 2.335300e-02, 2.661451e-02
1414.00, 3.637800e-04, 4.148795e-04
1415.00, 1.836600e-04, 2.096065e-04
1416.00, 3.556500e-02, 4.061812e-02
1417.00, 1.175900e-02, 1.343922e-02
1418.00, 1.355900e-02, 1.550735e-02
1419.00, 2.144200e-03, 2.454039e-03
1420.00, 8.271800e-03, 9.473753e-03
1421.00, 9.163700e-03, 1.050264e-02
1422.00, 4.631400e-02, 5.311847e-02
1423.00, 9.219800e-03, 1.058181e-02
1424.00, 1.697500e-02, 1.949636e-02
1425.00, 2.585000e-02, 2.971044e-02
1426.00, 2.779200e-02, 3.196488e-02
1427.00, 4.954600e-02, 5.702513e-02
1428.00, 4.558800e-03, 5.250642e-03
1429.00, 3.802000e-02, 4.382057e-02
1430.00, 6.160100e-02, 7.104892e-02
1431.00, 5.015600e-02, 5.788902e-02
1432.00, 2.519400e-03, 2.909872e-03
1433.00, 3.583400e-02, 4.141667e-02
1434.00, 2.096200e-02, 2.424463e-02
1435.00, 2.141600e-02, 2.478700e-02
1436.00, 3.835100e-02, 4.441860e-02
1437.00, 2.988000e-02, 3.463148e-02
1438.00, 1.326300e-02, 1.538276e-02
1439.00, 5.103900e-02, 5.923749e-02
1440.00, 3.960100e-02, 4.599412e-02
1441.00, 3.180000e-02, 3.695939e-02
1442.00, 3.631700e-02, 4.223854e-02
1443.00, 4.506300e-02, 5.244694e-02
1444.00, 6.179100e-02, 7.196579e-02
1445.00, 4.975100e-02, 5.798336e-02
1446.00, 2.309500e-02, 2.693518e-02
1447.00, 3.621500e-02, 4.226596e-02
1448.00, 1.156900e-01, 1.351133e-01
1449.00, 1.021300e-01, 1.193591e-01
1450.00, 2.741200e-02, 3.205844e-02
1451.00, 1.127100e-02, 1.319057e-02
1452.00, 6.236100e-02, 7.303203e-02
1453.00, 8.197800e-02, 9.607196e-02
1454.00, 1.375900e-01, 1.613559e-01
1455.00, 6.615000e-02, 7.762946e-02
1456.00, 8.850900e-02, 1.039400e-01
1457.00, 1.170000e-01, 1.374925e-01
1458.00, 1.364300e-01, 1.604357e-01
1459.00, 1.630700e-01, 1.918947e-01
1460.00, 8.542100e-02, 1.005892e-01
1461.00, 9.027600e-02, 1.063791e-01
1462.00, 1.306000e-01, 1.540013e-01
1463.00, 4.322500e-02, 5.100503e-02
1464.00, 1.518400e-01, 1.792920e-01
1465.00, 9.338300e-02, 1.103416e-01
1466.00, 6.519700e-02, 7.708951e-02
1467.00, 3.605400e-02, 4.265965e-02
1468.00, 7.694200e-02, 9.110102e-02
1469.00, 9.484500e-02, 1.123751e-01
1470.00, 4.967800e-02, 5.889998e-02
1471.00, 1.784800e-02, 2.117561e-02
1472.00, 4.677100e-02, 5.552878e-02
1473.00, 7.019800e-02, 8.339907e-02
1474.00, 9.733900e-02, 1.157226e-01
1475.00, 1.846300e-01, 2.196484e-01
1476.00, 6.877800e-02, 8.187845e-02
1477.00, 6.973600e-02, 8.307517e-02
1478.00, 6.348000e-02, 7.567371e-02
1479.00, 1.200100e-01, 1.431592e-01
1480.00, 6.063700e-02, 7.238242e-02
1481.00, 1.152900e-01, 1.377147e-01
1482.00, 5.849000e-02, 6.991390e-02
1483.00, 1.485900e-01, 1.777315e-01
1484.00, 1.374700e-01, 1.645415e-01
1485.00, 1.250300e-01, 1.497526e-01
1486.00, 1.234000e-01, 1.478998e-01
1487.00, 6.062900e-02, 7.271518e-02
1488.00, 9.418000e-02, 1.130304e-01
1489.00, 1.897300e-01, 2.278581e-01
1490.00, 1.747800e-01, 2.100447e-01
1491.00, 1.977800e-01, 2.378448e-01
1492.00, 1.644100e-01, 1.978476e-01
1493.00, 1.815700e-01, 2.186440e-01
1494.00, 2.036700e-01, 2.454208e-01
1495.00, 1.825300e-01, 2.200945e-01
1496.00, 1.685200e-01, 2.033372e-01
1497.00, 2.285000e-01, 2.758937e-01
1498.00, 1.896800e-01, 2.291749e-01
1499.00, 2.175900e-01, 2.630718e-01
1500.00, 2.506100e-01, 3.031959e-01
1501.00, 2.655200e-01, 3.214487e-01
1502.00, 2.335600e-01, 2.829451e-01
1503.00, 1.849300e-01, 2.241816e-01
1504.00, 1.602900e-01, 1.944411e-01
1505.00, 1.840200e-01, 2.233753e-01
1506.00, 2.577300e-01, 3.130572e-01
1507.00, 2.551400e-01, 3.101170e-01
1508.00, 2.430200e-01, 2.955814e-01
1509.00, 1.869000e-01, 2.274743e-01
1510.00, 2.705200e-01, 3.294656e-01
1511.00, 2.647400e-01, 3.226396e-01
1512.00, 2.606800e-01, 3.179020e-01
1513.00, 2.423900e-01, 2.957926e-01
1514.00, 2.257100e-01, 2.756198e-01
1515.00, 2.657300e-01, 3.247035e-01
1516.00, 2.568300e-01, 3.140354e-01
1517.00, 2.492900e-01, 3.050171e-01
1518.00, 2.521100e-01, 3.086708e-01
1519.00, 2.443700e-01, 2.993914e-01
1520.00, 2.645000e-01, 3.242672e-01
1521.00, 2.750500e-01, 3.374229e-01
1522.00, 2.637800e-01, 3.238100e-01
1523.00, 2.800400e-01, 3.439962e-01
1524.00, 2.753900e-01, 3.385064e-01
1525.00, 2.588400e-01, 3.183721e-01
1526.00, 2.674500e-01, 3.291780e-01
1527.00, 2.622000e-01, 3.229278e-01
1528.00, 2.792800e-01, 3.441889e-01
1529.00, 2.724400e-01, 3.359789e-01
1530.00, 2.552200e-01, 3.149487e-01
1531.00, 2.697300e-01, 3.330720e-01
1532.00, 2.783900e-01, 3.439902e-01
1533.00, 2.771400e-01, 3.426692e-01
1534.00, 2.689200e-01, 3.327225e-01
1535.00, 2.668600e-01, 3.303890e-01
1536.00, 2.746400e-01, 3.402426e-01
1537.00, 2.733600e-01, 3.388773e-01
1538.00, 2.720200e-01, 3.374356e-01
1539.00, 2.729500e-01, 3.388094e-01
1540.00, 2.649100e-01, 3.290431e-01
1541.00, 2.690400e-01, 3.343899e-01
1542.00, 2.692700e-01, 3.348930e-01
1543.00, 2.720800e-01, 3.386072e-01
1544.00, 2.721000e-01, 3.388516e-01
1545.00, 2.770500e-01, 3.452394e-01
1546.00, 2.748100e-01, 3.426697e-01
1547.00, 2.730900e-01, 3.407453e-01
1548.00, 2.667500e-01, 3.330497e-01
1549.00, 2.734200e-01, 3.415981e-01
1550.00, 2.699000e-01, 3.374180e-01
1551.00, 2.705800e-01, 3.384864e-01
1552.00, 2.718200e-01, 3.402568e-01
1553.00, 2.713200e-01, 3.398498e-01
1554.00, 2.647400e-01, 3.318213e-01
1555.00, 2.675900e-01, 3.356093e-01
1556.00, 2.631000e-01, 3.301902e-01
1557.00, 2.706200e-01, 3.398460e-01
1558.00, 2.684800e-01, 3.373752e-01
1559.00, 2.680800e-01, 3.370887e-01
1560.00, 2.656800e-01, 3.342852e-01
1561.00, 2.700200e-01, 3.399637e-01
1562.00, 2.675600e-01, 3.370823e-01
1563.00, 2.666700e-01, 3.361761e-01
1564.00, 2.626400e-01, 3.313075e-01
1565.00, 2.672800e-01, 3.373762e-01
1566.00, 2.624500e-01, 3.314912e-01
1567.00, 2.630800e-01, 3.324991e-01
1568.00, 2.572200e-01, 3.253003e-01
1569.00, 2.545200e-01, 3.220910e-01
1570.00, 2.417500e-01, 3.061257e-01
1571.00, 2.350700e-01, 2.978565e-01
1572.00, 2.377500e-01, 3.014441e-01
1573.00, 2.340700e-01, 2.969670e-01
1574.00, 2.414500e-01, 3.065248e-01
1575.00, 2.397400e-01, 3.045473e-01
1576.00, 2.467800e-01, 3.136894e-01
1577.00, 2.160200e-01, 2.747637e-01
1578.00, 2.351600e-01, 2.992982e-01
1579.00, 2.367200e-01, 3.014746e-01
1580.00, 2.446400e-01, 3.117585e-01
1581.00, 2.487000e-01, 3.171329e-01
1582.00, 2.419500e-01, 3.087207e-01
1583.00, 2.475500e-01, 3.160658e-01
1584.00, 2.490400e-01, 3.181691e-01
1585.00, 2.587400e-01, 3.307703e-01
1586.00, 2.556900e-01, 3.270775e-01
1587.00, 2.530300e-01, 3.238789e-01
1588.00, 2.510700e-01, 3.215726e-01
1589.00, 2.323300e-01, 2.977576e-01
1590.00, 2.417900e-01, 3.100767e-01
1591.00, 2.419700e-01, 3.105027e-01
1592.00, 2.522500e-01, 3.238978e-01
1593.00, 2.583300e-01, 3.319130e-01
1594.00, 2.562400e-01, 3.294344e-01
1595.00, 2.582300e-01, 3.322011e-01
1596.00, 2.445200e-01, 3.147610e-01
1597.00, 2.469200e-01, 3.180496e-01
1598.00, 2.542100e-01, 3.276447e-01
1599.00, 2.420200e-01, 3.121285e-01
1600.00, 2.381000e-01, 3.072650e-01
1601.00, 2.232300e-01, 2.882555e-01
1602.00, 2.241300e-01, 2.895984e-01
1603.00, 2.239700e-01, 2.895723e-01
1604.00, 2.284200e-01, 2.955100e-01
1605.00, 2.368300e-01, 3.065812e-01
1606.00, 2.414000e-01, 3.126918e-01
1607.00, 2.329600e-01, 3.019472e-01
1608.00, 2.299000e-01, 2.981664e-01
1609.00, 2.272700e-01, 2.949388e-01
1610.00, 2.176000e-01, 2.825651e-01
1611.00, 2.268000e-01, 2.946947e-01
1612.00, 2.307600e-01, 3.000263e-01
1613.00, 2.371900e-01, 3.085776e-01
1614.00, 2.383800e-01, 3.103181e-01
1615.00, 2.410400e-01, 3.139752e-01
1616.00, 2.305000e-01, 3.004319e-01
1617.00, 2.346500e-01, 3.060302e-01
1618.00, 2.435200e-01, 3.177948e-01
1619.00, 2.410000e-01, 3.147006e-01
1620.00, 2.344900e-01, 3.063889e-01
1621.00, 2.343000e-01, 3.063296e-01
1622.00, 2.375400e-01, 3.107573e-01
1623.00, 2.424600e-01, 3.173893e-01
1624.00, 2.426900e-01, 3.178862e-01
1625.00, 2.378200e-01, 3.116990e-01
1626.00, 2.397100e-01, 3.143695e-01
1627.00, 2.407800e-01, 3.159670e-01
1628.00, 2.412600e-01, 3.167914e-01
1629.00, 2.413700e-01, 3.171305e-01
1630.00, 2.365100e-01, 3.109359e-01
1631.00, 2.380600e-01, 3.131656e-01
1632.00, 2.382100e-01, 3.135551e-01
1633.00, 2.326700e-01, 3.064505e-01
1634.00, 2.328200e-01, 3.068358e-01
1635.00, 2.336700e-01, 3.081445e-01
1636.00, 2.353900e-01, 3.106025e-01
1637.00, 2.270000e-01, 2.997148e-01
1638.00, 2.200700e-01, 2.907424e-01
1639.00, 2.202600e-01, 2.911711e-01
1640.00, 2.151100e-01, 2.845366e-01
1641.00, 2.196000e-01, 2.906529e-01
1642.00, 2.208200e-01, 2.924457e-01
1643.00, 2.153500e-01, 2.853751e-01
1644.00, 2.235500e-01, 2.964218e-01
1645.00, 2.182200e-01, 2.895304e-01
1646.00, 2.174900e-01, 2.887373e-01
1647.00, 2.276800e-01, 3.024490e-01
1648.00, 2.165500e-01, 2.878386e-01
1649.00, 2.186700e-01, 2.908329e-01
1650.00, 2.252600e-01, 2.997794e-01
1651.00, 2.085500e-01, 2.777096e-01
1652.00, 2.237300e-01, 2.981041e-01
1653.00, 2.227700e-01, 2.970047e-01
1654.00, 2.158300e-01, 2.879261e-01
1655.00, 2.223100e-01, 2.967500e-01
1656.00, 2.210100e-01, 2.951929e-01
1657.00, 2.222300e-01, 2.970017e-01
1658.00, 2.248700e-01, 3.007113e-01
1659.00, 2.212000e-01, 2.959819e-01
1660.00, 2.233200e-01, 2.989988e-01
1661.00, 2.238400e-01, 2.998755e-01
1662.00, 2.190800e-01, 2.936753e-01
1663.00, 2.223500e-01, 2.982381e-01
1664.00, 2.209800e-01, 2.965787e-01
1665.00, 2.117800e-01, 2.844022e-01
1666.00, 1.788400e-01, 2.403108e-01
1667.00, 2.106800e-01, 2.832648e-01
1668.00, 2.145900e-01, 2.886950e-01
1669.00, 2.151600e-01, 2.896354e-01
1670.00, 2.216800e-01, 2.985910e-01
1671.00, 2.187900e-01, 2.948748e-01
1672.00, 2.114700e-01, 2.851798e-01
1673.00, 2.162900e-01, 2.918543e-01
1674.00, 2.157500e-01, 2.912996e-01
1675.00, 2.136000e-01, 2.885691e-01
1676.00, 2.114500e-01, 2.858350e-01
1677.00, 2.122900e-01, 2.871417e-01
1678.00, 2.091500e-01, 2.830633e-01
1679.00, 2.130300e-01, 2.884863e-01
1680.00, 2.055800e-01, 2.785633e-01
1681.00, 1.944700e-01, 2.636659e-01
1682.00, 2.036600e-01, 2.762902e-01
1683.00, 2.090600e-01, 2.837846e-01
1684.00, 1.979700e-01, 2.688903e-01
1685.00, 2.132100e-01, 2.897618e-01
1686.00, 2.102600e-01, 2.859222e-01
1687.00, 2.048400e-01, 2.787171e-01
1688.00, 2.101300e-01, 2.860844e-01
1689.00, 2.071800e-01, 2.822352e-01
1690.00, 2.052300e-01, 2.797443e-01
1691.00, 1.930300e-01, 2.632705e-01
1692.00, 2.070800e-01, 2.826000e-01
1693.00, 2.113400e-01, 2.885841e-01
1694.00, 2.047700e-01, 2.797779e-01
1695.00, 2.096800e-01, 2.866556e-01
1696.00, 2.092200e-01, 2.861955e-01
1697.00, 1.810700e-01, 2.478347e-01
1698.00, 2.073900e-01, 2.840267e-01
1699.00, 2.055100e-01, 2.816178e-01
1700.00, 1.997500e-01, 2.738857e-01
1702.00, 2.039600e-01, 2.799873e-01
1705.00, 1.977800e-01, 2.719822e-01
1710.00, 1.879000e-01, 2.591532e-01
1715.00, 1.896500e-01, 2.623316e-01
1720.00, 1.869800e-01, 2.593924e-01
1725.00, 1.780800e-01, 2.477639e-01
1730.00, 1.740700e-01, 2.428867e-01
1735.00, 1.615400e-01, 2.260546e-01
1740.00, 1.681800e-01, 2.360246e-01
1745.00, 1.548100e-01, 2.178854e-01
1750.00, 1.656600e-01, 2.338242e-01
1755.00, 1.530100e-01, 2.165861e-01
1760.00, 1.599800e-01, 2.270973e-01
1765.00, 1.328400e-01, 1.891069e-01
1770.00, 1.417200e-01, 2.023197e-01
1775.00, 1.148400e-01, 1.644089e-01
1780.00, 1.005000e-01, 1.442845e-01
1785.00, 7.698100e-02, 1.108295e-01
1790.00, 8.890400e-02, 1.283536e-01
1795.00, 4.693100e-02, 6.794507e-02
1800.00, 3.182800e-02, 4.620783e-02
1805.00, 1.481500e-02, 2.156813e-02
1810.00, 9.691100e-03, 1.414768e-02
1815.00, 3.281600e-03, 4.803922e-03
1820.00, 9.875500e-04, 1.449653e-03
1825.00, 1.274400e-03, 1.875868e-03
1830.00, 5.204100e-06, 7.681224e-06
1835.00, 6.419000e-06, 9.500296e-06
1840.00, 6.270300e-08, 9.305503e-08
1845.00, 6.265800e-06, 9.324093e-06
1850.00, 2.999300e-06, 4.475333e-06
1855.00, 2.839600e-07, 4.248492e-07
1860.00, 1.115100e-05, 1.672863e-05
1865.00, 1.698200e-05, 2.554473e-05
1870.00, 2.666200e-10, 4.021314e-10
1875.00, 4.513000e-10, 6.824963e-10
1880.00, 7.750500e-05, 1.175226e-04
1885.00, 4.389000e-05, 6.672839e-05
1890.00, 2.233300e-04, 3.404416e-04
1895.00, 1.294700e-04, 1.978846e-04
1900.00, 8.622100e-07, 1.321297e-06
1905.00, 5.666700e-07, 8.706807e-07
1910.00, 2.304500e-05, 3.550126e-05
1915.00, 1.994700e-05, 3.080917e-05
1920.00, 4.506900e-04, 6.979316e-04
1925.00, 9.361500e-04, 1.453483e-03
1930.00, 5.524200e-04, 8.599247e-04
1935.00, 3.593500e-03, 5.608314e-03
1940.00, 3.282100e-03, 5.135553e-03
1945.00, 1.086300e-02, 1.704131e-02
1950.00, 1.672700e-02, 2.630791e-02
1955.00, 1.003600e-02, 1.582491e-02
1960.00, 2.190600e-02, 3.463003e-02
1965.00, 2.856300e-02, 4.526891e-02
1970.00, 4.884700e-02, 7.761360e-02
1975.00, 6.785700e-02, 1.080925e-01
1980.00, 7.551200e-02, 1.205910e-01
1985.00, 8.306300e-02, 1.329847e-01
1990.00, 8.561300e-02, 1.374126e-01
1995.00, 8.119000e-02, 1.306409e-01
2000.00, 3.815600e-02, 6.154978e-02
2005.00, 1.500100e-02, 2.425874e-02
2010.00, 3.974800e-02, 6.443844e-02
2015.00, 2.664800e-02, 4.330852e-02
2020.00, 4.498100e-02, 7.328485e-02
2025.00, 7.401000e-02, 1.208785e-01
2030.00, 8.485600e-02, 1.389352e-01
2035.00, 9.638600e-02, 1.582020e-01
2040.00, 8.978100e-02, 1.477231e-01
2045.00, 9.107400e-02, 1.502178e-01
2050.00, 6.792700e-02, 1.123130e-01
2055.00, 5.490600e-02, 9.100502e-02
2060.00, 6.919300e-02, 1.149643e-01
2065.00, 6.187500e-02, 1.030550e-01
2070.00, 6.567600e-02, 1.096505e-01
2075.00, 7.744300e-02, 1.296086e-01
2080.00, 8.681200e-02, 1.456387e-01
2085.00, 8.510200e-02, 1.431131e-01
2090.00, 8.910000e-02, 1.501958e-01
2095.00, 8.974700e-02, 1.516483e-01
2100.00, 8.613300e-02, 1.458890e-01
2105.00, 9.315300e-02, 1.581549e-01
2110.00, 8.965400e-02, 1.525759e-01
2115.00, 9.167300e-02, 1.563816e-01
2120.00, 8.758800e-02, 1.497663e-01
2125.00, 8.863200e-02, 1.519089e-01
2130.00, 8.977400e-02, 1.542282e-01
2135.00, 9.004400e-02, 1.550552e-01
2140.00, 9.076700e-02, 1.566663e-01
2145.00, 8.948600e-02, 1.548161e-01
2150.00, 8.463900e-02, 1.467718e-01
2155.00, 8.484000e-02, 1.474625e-01
2160.00, 8.417000e-02, 1.466374e-01
2165.00, 7.631000e-02, 1.332518e-01
2170.00, 8.199600e-02, 1.435113e-01
2175.00, 8.044800e-02, 1.411264e-01
2180.00, 8.180800e-02, 1.438421e-01
2185.00, 7.455000e-02, 1.313811e-01
2190.00, 7.906800e-02, 1.396621e-01
2195.00, 7.899200e-02, 1.398464e-01
2200.00, 7.120200e-02, 1.263422e-01
2205.00, 7.401000e-02, 1.316233e-01
2210.00, 7.931500e-02, 1.413778e-01
2215.00, 7.627300e-02, 1.362631e-01
2220.00, 7.773000e-02, 1.391795e-01
2225.00, 7.545300e-02, 1.354067e-01
2230.00, 7.577300e-02, 1.362866e-01
2235.00, 7.429900e-02, 1.339350e-01
2240.00, 7.311800e-02, 1.321010e-01
2245.00, 7.083800e-02, 1.282674e-01
2250.00, 7.193700e-02, 1.305475e-01
2255.00, 6.769000e-02, 1.231132e-01
2260.00, 6.692900e-02, 1.219991e-01
2265.00, 6.813700e-02, 1.244758e-01
2270.00, 6.486700e-02, 1.187636e-01
2275.00, 6.402100e-02, 1.174729e-01
2280.00, 6.628800e-02, 1.218999e-01
2285.00, 6.308000e-02, 1.162550e-01
2290.00, 6.322000e-02, 1.167680e-01
2295.00, 6.126500e-02, 1.134041e-01
2300.00, 5.882400e-02, 1.091229e-01
2305.00, 5.917100e-02, 1.100053e-01
2310.00, 6.387000e-02, 1.189988e-01
2315.00, 5.814100e-02, 1.085593e-01
2320.00, 5.203100e-02, 9.736074e-02
2325.00, 5.621500e-02, 1.054166e-01
2330.00, 5.682400e-02, 1.067877e-01
2335.00, 5.796700e-02, 1.091695e-01
2340.00, 4.583600e-02, 8.650800e-02
2345.00, 5.140000e-02, 9.721643e-02
2350.00, 4.153600e-02, 7.872746e-02
2355.00, 4.747300e-02, 9.017191e-02
2360.00, 5.023700e-02, 9.562455e-02
2365.00, 4.940900e-02, 9.424773e-02
2370.00, 3.081700e-02, 5.890775e-02
2375.00, 4.414700e-02, 8.456653e-02
2380.00, 4.255200e-02, 8.168280e-02
2385.00, 3.082600e-02, 5.929789e-02
2390.00, 3.710900e-02, 7.153373e-02
2395.00, 4.059400e-02, 7.841535e-02
2400.00, 4.415000e-02, 8.546251e-02
2405.00, 3.359900e-02, 6.517411e-02
2410.00, 3.381300e-02, 6.572558e-02
2415.00, 2.730000e-02, 5.317573e-02
2420.00, 2.659000e-02, 5.190001e-02
2425.00, 3.307800e-02, 6.469708e-02
2430.00, 4.509900e-02, 8.839076e-02
2435.00, 1.487800e-02, 2.921980e-02
2440.00, 4.324900e-02, 8.511373e-02
2445.00, 2.079800e-02, 4.101419e-02
2450.00, 1.361100e-02, 2.689613e-02
2455.00, 2.485300e-02, 4.921121e-02
2460.00, 3.336300e-02, 6.619633e-02
2465.00, 2.414800e-02, 4.801001e-02
2470.00, 1.672700e-02, 3.332335e-02
2475.00, 1.645500e-02, 3.284784e-02
2480.00, 8.039500e-03, 1.608105e-02
2485.00, 5.610200e-03, 1.124446e-02
2490.00, 3.511300e-03, 7.051816e-03
2495.00, 2.877200e-03, 5.789943e-03
2500.00, 7.064200e-03, 1.424416e-02
2505.00, 1.519100e-03, 3.069218e-03
2510.00, 2.216300e-03, 4.486792e-03
2515.00, 5.188000e-04, 1.052378e-03
2520.00, 3.705400e-04, 7.531289e-04
2525.00, 4.139300e-05, 8.429892e-05
2530.00, 6.359300e-07, 1.297668e-06
2535.00, 1.750200e-07, 3.578486e-07
2540.00, 3.771600e-07, 7.726682e-07
2545.00, 5.375800e-11, 1.103480e-10
2550.00, 2.822200e-13, 5.804458e-13
2555.00, 1.043500e-09, 2.150389e-09
2560.00, 3.102000e-11, 6.404946e-11
2565.00, 1.595500e-14, 3.300790e-14
2570.00, 1.525800e-18, 3.162747e-18
2575.00, 1.078600e-27, 2.240120e-27
2580.00, 3.821400e-22, 7.951991e-22
2585.00, 1.719400e-34, 3.584852e-34
2590.00, 5.479300e-31, 1.144613e-30
2595.00, 2.283800e-33, 4.780014e-33
2600.00, 4.491200e-28, 9.418233e-28
2605.00, 5.805300e-35, 1.219737e-34
2610.00, 5.944700e-34, 1.251423e-33
2615.00, 1.119600e-37, 2.361393e-37
2620.00, 5.650500e-29, 1.194048e-28
2625.00, 3.868700e-28, 8.190833e-28
2630.00, 2.802600e-45, 5.944982e-45
2635.00, 3.902700e-16, 8.294295e-16
2640.00, 1.175000e-16, 2.501932e-16
2645.00, 8.998800e-19, 1.919747e-18
2650.00, 1.429500e-19, 3.055369e-19
2655.00, 1.313300e-27, 2.812303e-27
2660.00, 2.606800e-25, 5.592720e-25
2665.00, 1.112300e-37, 2.390853e-37
2670.00, 0.000000e+00, 0.000000e+00
2675.00, 0.000000e+00, 0.000000e+00
2680.00, 0.000000e+00, 0.000000e+00
2685.00, 0.000000e+00, 0.000000e+00
2690.00, 1.022600e-29, 2.218665e-29
2695.00, 7.128400e-33, 1.549475e-32
2700.00, 0.000000e+00, 0.000000e+00
2705.00, 2.931500e-42, 6.395741e-42
2710.00, 1.125000e-35, 2.458983e-35
2715.00, 3.855700e-26, 8.443194e-26
2720.00, 5.605200e-45, 1.229685e-44
2725.00, 7.293500e-22, 1.603010e-21
2730.00, 6.073400e-19, 1.337298e-18
2735.00, 5.488800e-21, 1.210789e-20
2740.00, 2.331400e-27, 5.152299e-27
2745.00, 1.314600e-23, 2.910514e-23
2750.00, 1.664800e-28, 3.692568e-28
2755.00, 6.726200e-44, 1.494600e-43
2760.00, 0.000000e+00, 0.000000e+00
2765.00, 2.677700e-27, 5.971601e-27
2770.00, 8.379100e-24, 1.872022e-23
2775.00, 3.999000e-38, 8.950516e-38
2780.00, 4.806700e-34, 1.077769e-33
2785.00, 3.886600e-27, 8.730292e-27
2790.00, 1.217000e-16, 2.738599e-16
2795.00, 3.620500e-16, 8.161765e-16
2800.00, 1.648400e-12, 3.722668e-12
2805.00, 6.747800e-14, 1.526612e-13
2810.00, 4.023300e-10, 9.118480e-10
2815.00, 2.868500e-10, 6.512788e-10
2820.00, 2.054800e-11, 4.673609e-11
2825.00, 1.760500e-07, 4.011328e-07
2830.00, 3.900800e-06, 8.903768e-06
2835.00, 2.127600e-10, 4.864932e-10
2840.00, 1.960900e-07, 4.491666e-07
2845.00, 4.057500e-05, 9.310532e-05
2850.00, 1.156600e-06, 2.658654e-06
2855.00, 4.486700e-07, 1.033158e-06
2860.00, 2.535600e-05, 5.848985e-05
2865.00, 1.676300e-04, 3.873558e-04
2870.00, 6.312900e-06, 1.461317e-05
2875.00, 3.917000e-04, 9.082912e-04
2880.00, 2.472400e-04, 5.743081e-04
2885.00, 4.533200e-04, 1.054835e-03
2890.00, 1.862300e-04, 4.340914e-04
2895.00, 2.664300e-03, 6.221074e-03
2900.00, 8.115200e-04, 1.898152e-03
2905.00, 1.109600e-04, 2.599838e-04
2910.00, 2.722000e-03, 6.388734e-03
2915.00, 1.258100e-03, 2.957927e-03
2920.00, 2.894800e-03, 6.817657e-03
2925.00, 1.083500e-03, 2.556163e-03
2930.00, 5.885800e-03, 1.390935e-02
2935.00, 6.490300e-03, 1.536408e-02
2940.00, 1.627300e-03, 3.858768e-03
2945.00, 1.448900e-03, 3.441576e-03
2950.00, 5.227600e-03, 1.243822e-02
2955.00, 2.336100e-03, 5.567787e-03
2960.00, 4.597100e-03, 1.097512e-02
2965.00, 7.437900e-03, 1.778725e-02
2970.00, 3.523300e-04, 8.439948e-04
2975.00, 8.542900e-04, 2.049868e-03
2980.00, 1.338100e-03, 3.216167e-03
2985.00, 6.962800e-03, 1.676339e-02
2990.00, 1.028000e-02, 2.479123e-02
2995.00, 4.275500e-03, 1.032803e-02
3000.00, 7.847200e-03, 1.898758e-02
3005.00, 2.890600e-03, 7.005936e-03
3010.00, 6.847900e-03, 1.662485e-02
3015.00, 5.555100e-03, 1.350868e-02
3020.00, 6.336900e-04, 1.543539e-03
3025.00, 7.503100e-03, 1.830627e-02
3030.00, 6.075300e-03, 1.484718e-02
3035.00, 2.498600e-03, 6.116305e-03
3040.00, 2.024200e-03, 4.963188e-03
3045.00, 4.209000e-03, 1.033713e-02
3050.00, 1.032100e-03, 2.538957e-03
3055.00, 2.894700e-04, 7.132610e-04
3060.00, 6.301200e-03, 1.555172e-02
3065.00, 2.911300e-03, 7.196994e-03
3070.00, 1.749200e-03, 4.331233e-03
3075.00, 6.022100e-03, 1.493574e-02
3080.00, 3.622400e-03, 8.998722e-03
3085.00, 1.767100e-03, 4.396935e-03
3090.00, 2.380500e-03, 5.932809e-03
3095.00, 6.551000e-04, 1.635317e-03
3100.00, 4.401000e-03, 1.100390e-02
3105.00, 9.215500e-04, 2.307885e-03
3110.00, 8.456900e-04, 2.121316e-03
3115.00, 2.267700e-03, 5.697408e-03
3120.00, 9.819700e-03, 2.471078e-02
3125.00, 3.028900e-03, 7.634290e-03
3130.00, 5.761400e-03, 1.454474e-02
3135.00, 1.144600e-02, 2.894176e-02
3140.00, 3.324100e-03, 8.418553e-03
3145.00, 3.251700e-03, 8.248307e-03
3150.00, 6.674400e-03, 1.695729e-02
3155.00, 5.636600e-03, 1.434334e-02
3160.00, 9.232000e-03, 2.352971e-02
3165.00, 1.401700e-02, 3.578183e-02
3170.00, 1.251600e-02, 3.200063e-02
3175.00, 9.230200e-03, 2.363679e-02
3180.00, 1.062100e-02, 2.724120e-02
3185.00, 8.082300e-03, 2.076243e-02
3190.00, 4.238800e-03, 1.090605e-02
3195.00, 2.692700e-03, 6.938930e-03
3200.00, 4.384300e-04, 1.131577e-03
3205.00, 3.097300e-04, 8.006542e-04
3210.00, 1.363400e-04, 3.529897e-04
3215.00, 4.975200e-04, 1.290105e-03
3220.00, 1.608900e-03, 4.178483e-03
3225.00, 1.987500e-04, 5.169762e-04
3230.00, 3.408000e-04, 8.878423e-04
3235.00, 7.294000e-03, 1.903153e-02
3240.00, 3.746400e-03, 9.790229e-03
3245.00, 7.340900e-04, 1.921311e-03
3250.00, 2.606700e-03, 6.832948e-03
3255.00, 9.937800e-03, 2.609005e-02
3260.00, 1.224800e-03, 3.220449e-03
3265.00, 2.446500e-03, 6.442614e-03
3270.00, 1.218600e-03, 3.213976e-03
3275.00, 5.926500e-03, 1.565465e-02
3280.00, 2.864400e-03, 7.577766e-03
3285.00, 1.112800e-02, 2.948399e-02
3290.00, 8.757100e-03, 2.323753e-02
3295.00, 1.223400e-03, 3.251304e-03
3300.00, 1.779400e-03, 4.736104e-03
3305.00, 3.941600e-03, 1.050698e-02
3310.00, 3.923500e-03, 1.047455e-02
3315.00, 1.613300e-05, 4.313525e-05
3320.00, 5.998700e-05, 1.606308e-04
3325.00, 3.518700e-03, 9.436427e-03
3330.00, 4.661600e-03, 1.252025e-02
3335.00, 9.069400e-03, 2.439541e-02
3340.00, 3.460200e-03, 9.321405e-03
3345.00, 3.540800e-03, 9.552812e-03
3350.00, 8.027700e-03, 2.169050e-02
3355.00, 3.630800e-03, 9.824909e-03
3360.00, 5.240200e-03, 1.420106e-02
3365.00, 7.190700e-03, 1.951596e-02
3370.00, 3.938900e-03, 1.070628e-02
3375.00, 8.456000e-03, 2.301826e-02
3380.00, 5.111500e-03, 1.393474e-02
3385.00, 7.489600e-03, 2.044801e-02
3390.00, 9.855200e-03, 2.694628e-02
3395.00, 9.546500e-03, 2.614073e-02
3400.00, 1.250900e-02, 3.430325e-02
3405.00, 4.459400e-03, 1.224693e-02
3410.00, 7.080200e-03, 1.947303e-02
3415.00, 7.277400e-03, 2.004475e-02
3420.00, 1.316500e-02, 3.631455e-02
3425.00, 1.000600e-02, 2.764107e-02
3430.00, 8.689200e-03, 2.403851e-02
3435.00, 1.155300e-02, 3.200776e-02
3440.00, 8.034800e-03, 2.229293e-02
3445.00, 1.131800e-02, 3.144797e-02
3450.00, 1.115300e-02, 3.103448e-02
3455.00, 8.308900e-03, 2.315396e-02
3460.00, 1.253000e-02, 3.496720e-02
3465.00, 9.817900e-03, 2.743820e-02
3470.00, 1.226400e-02, 3.432380e-02
3475.00, 1.094300e-02, 3.067079e-02
3480.00, 1.122400e-02, 3.150363e-02
3485.00, 1.209400e-02, 3.399433e-02
3490.00, 1.041900e-02, 2.932818e-02
3495.00, 1.226500e-02, 3.457390e-02
3500.00, 1.191700e-02, 3.364098e-02
3505.00, 1.180900e-02, 3.338373e-02
3510.00, 1.196300e-02, 3.386733e-02
3515.00, 1.149400e-02, 3.258594e-02
3520.00, 1.212200e-02, 3.441523e-02
3525.00, 1.142800e-02, 3.249100e-02
3530.00, 1.112700e-02, 3.168010e-02
3535.00, 9.455600e-03, 2.695952e-02
3540.00, 9.031000e-03, 2.578534e-02
3545.00, 9.543200e-03, 2.728626e-02
3550.00, 1.053800e-02, 3.017312e-02
3555.00, 9.058100e-03, 2.597230e-02
3560.00, 1.079500e-02, 3.099605e-02
3565.00, 1.085100e-02, 3.120060e-02
3570.00, 8.337600e-03, 2.400728e-02
3575.00, 8.644400e-03, 2.492554e-02
3580.00, 1.018700e-02, 2.941461e-02
3585.00, 9.167100e-03, 2.650665e-02
3590.00, 9.452300e-03, 2.736942e-02
3595.00, 9.670000e-03, 2.803878e-02
3600.00, 1.026200e-02, 2.979670e-02
3605.00, 1.035900e-02, 3.012013e-02
3610.00, 9.478700e-03, 2.759877e-02
3615.00, 9.472600e-03, 2.761921e-02
3620.00, 1.161400e-02, 3.390971e-02
3625.00, 1.023900e-02, 2.993638e-02
3630.00, 9.955000e-03, 2.914618e-02
3635.00, 1.029900e-02, 3.019487e-02
3640.00, 1.148000e-02, 3.370365e-02
3645.00, 1.059900e-02, 3.115991e-02
3650.00, 1.012300e-02, 2.980134e-02
3655.00, 1.097800e-02, 3.236267e-02
3660.00, 1.091400e-02, 3.221801e-02
3665.00, 1.025300e-02, 3.030809e-02
3670.00, 7.900300e-03, 2.338532e-02
3675.00, 4.828600e-03, 1.431239e-02
3680.00, 8.331200e-03, 2.472801e-02
3685.00, 9.438000e-03, 2.805118e-02
3690.00, 9.692200e-03, 2.884579e-02
3695.00, 1.013200e-02, 3.019558e-02
3700.00, 1.087800e-02, 3.246269e-02
3705.00, 1.077000e-02, 3.218382e-02
3710.00, 9.364000e-03, 2.802006e-02
3715.00, 9.225400e-03, 2.764253e-02
3720.00, 1.037600e-02, 3.113197e-02
3725.00, 1.069800e-02, 3.214124e-02
3730.00, 9.270700e-03, 2.789042e-02
3735.00, 8.583700e-03, 2.585823e-02
3740.00, 8.849400e-03, 2.669434e-02
3745.00, 1.033100e-02, 3.120527e-02
3750.00, 9.290300e-03, 2.809925e-02
3755.00, 8.991800e-03, 2.723267e-02
3760.00, 8.863300e-03, 2.687924e-02
3765.00, 8.550200e-03, 2.596420e-02
3770.00, 9.124300e-03, 2.774435e-02
3775.00, 9.052100e-03, 2.756132e-02
3780.00, 9.574600e-03, 2.919081e-02
3785.00, 8.812300e-03, 2.690227e-02
3790.00, 7.756400e-03, 2.371008e-02
3795.00, 8.869200e-03, 2.714751e-02
3800.00, 9.859200e-03, 3.021753e-02
3805.00, 9.304900e-03, 2.855618e-02
3810.00, 8.245100e-03, 2.533697e-02
3815.00, 7.756900e-03, 2.386802e-02
3820.00, 9.655000e-03, 2.974742e-02
3825.00, 9.505600e-03, 2.932545e-02
3830.00, 9.592500e-03, 2.963223e-02
3835.00, 7.691600e-03, 2.379117e-02
3840.00, 8.975600e-03, 2.779895e-02
3845.00, 8.780100e-03, 2.722886e-02
3850.00, 8.827400e-03, 2.741115e-02
3855.00, 8.508500e-03, 2.645520e-02
3860.00, 7.994000e-03, 2.488772e-02
3865.00, 8.098900e-03, 2.524697e-02
3870.00, 7.360400e-03, 2.297450e-02
3875.00, 6.762000e-03, 2.113395e-02
3880.00, 6.534000e-03, 2.044770e-02
3885.00, 6.771700e-03, 2.121888e-02
3890.00, 6.881800e-03, 2.159163e-02
3895.00, 7.476000e-03, 2.348608e-02
3900.00, 7.925400e-03, 2.492984e-02
3905.00, 7.926900e-03, 2.496653e-02
3910.00, 7.135300e-03, 2.250208e-02
3915.00, 6.986800e-03, 2.206194e-02
3920.00, 6.946600e-03, 2.196302e-02
3925.00, 6.852000e-03, 2.169156e-02
3930.00, 7.050200e-03, 2.234744e-02
3935.00, 7.354100e-03, 2.334038e-02
3940.00, 7.402700e-03, 2.352448e-02
3945.00, 7.541200e-03, 2.399502e-02
3950.00, 7.627700e-03, 2.430101e-02
3955.00, 7.719900e-03, 2.462589e-02
3960.00, 7.748200e-03, 2.474741e-02
3965.00, 7.805700e-03, 2.496254e-02
3970.00, 7.680600e-03, 2.459344e-02
3975.00, 7.509700e-03, 2.407650e-02
3980.00, 7.387200e-03, 2.371355e-02
3985.00, 7.432700e-03, 2.388959e-02
3990.00, 7.372300e-03, 2.372518e-02
3995.00, 7.210000e-03, 2.323195e-02
4000.00, 7.104300e-03, 2.292002e-02
